%OpenBCI Raw EEG Data
%
%Sample Rate = 250.0 Hz
%First Column = SampleIndex
%Last Column = Timestamp 
%Other Columns = EEG data in microvolts followed by Accel Data (in G) interleaved with Aux Data
0, 0.00, 0.00, 0.00, 0.00, 0.00, 0.00, 0.00, 0.00, -21019.74, -24614.43, -21132.97, -17433.24, -36122.74, -44959.06, -19648.77, -8901.36, 0.092, 0.964, -0.146, 17:08:04.847
1, 70229.76, 67562.99, -44384.89, -36940.86, -4900.24, -18386.57, -18097.71, -17955.40, -21019.74, -24614.43, -21132.97, -17433.24, -36122.74, -44959.06, -19648.77, -8901.36, 0.000, 0.000, 0.000, 17:08:04.848
2, 70229.76, 67562.99, -44384.89, -36940.86, -4900.24, -18386.57, -18097.71, -17955.40, -30397.23, -53314.16, -41647.24, -41903.15, -71442.59, -91270.55, -38116.25, -40610.46, 0.000, 0.000, 0.000, 17:08:05.328
3, 140466.38, 135109.47, -88764.52, -73882.44, -9784.32, -36766.45, -36183.50, -35897.84, -30397.23, -53314.16, -41647.24, -41903.15, -71442.59, -91270.55, -38116.25, -40610.46, 0.000, 0.000, 0.000, 17:08:05.328
4, 140466.38, 135109.47, -88764.52, -73882.44, -9784.32, -36766.45, -36183.50, -35897.84, -30409.14, -53319.91, -41663.27, -41921.63, -71456.45, -91285.13, -38113.07, -40613.36, 0.000, 0.000, 0.000, 17:08:05.329
5, 140456.53, 135106.66, -88776.27, -73886.46, -9799.27, -36770.83, -36199.54, -35900.66, -30409.14, -53319.91, -41663.27, -41921.63, -71456.45, -91285.13, -38113.07, -40613.36, 0.000, 0.000, 0.000, 17:08:05.329
6, 140456.53, 135106.66, -88776.27, -73886.46, -9799.27, -36770.83, -36199.54, -35900.66, -30415.36, -53329.90, -41693.27, -41951.45, -71463.40, -91286.91, -38123.38, -40617.07, 0.000, 0.000, 0.000, 17:08:05.329
7, 140450.88, 135142.36, -88787.38, -73893.70, -9793.62, -36788.40, -36201.02, -35916.17, -30415.36, -53329.90, -41693.27, -41951.45, -71463.40, -91286.91, -38123.38, -40617.07, 0.000, 0.000, 0.000, 17:08:05.329
8, 140450.88, 135142.36, -88787.38, -73893.70, -9793.62, -36788.40, -36201.02, -35916.17, -30414.93, -53331.30, -41665.08, -41941.19, -71461.90, -91286.33, -38116.59, -40624.34, 0.060, 0.932, -0.276, 17:08:05.329
9, 140455.66, 135143.38, -88785.20, -73894.24, -9805.96, -36786.16, -36195.72, -35911.72, -30414.93, -53331.30, -41665.08, -41941.19, -71461.90, -91286.33, -38116.59, -40624.34, 0.000, 0.000, 0.000, 17:08:05.329
10, 140455.66, 135143.38, -88785.20, -73894.24, -9805.96, -36786.16, -36195.72, -35911.72, -30408.03, -53329.23, -41660.81, -41931.76, -71453.96, -91280.63, -38139.29, -40625.23, 0.000, 0.000, 0.000, 17:08:05.330
11, 140474.25, 135116.02, -88770.87, -73881.81, -9811.34, -36781.92, -36189.77, -35903.63, -30408.03, -53329.23, -41660.81, -41931.76, -71453.96, -91280.63, -38139.29, -40625.23, 0.000, 0.000, 0.000, 17:08:05.330
12, 140474.25, 135116.02, -88770.87, -73881.81, -9811.34, -36781.92, -36189.77, -35903.63, -30401.99, -53313.74, -41667.16, -41931.04, -71448.11, -91274.09, -38130.67, -40628.50, 0.000, 0.000, 0.000, 17:08:05.330
13, 140476.23, 135123.05, -88769.05, -73883.53, -9787.83, -36779.50, -36182.15, -35899.27, -30401.99, -53313.74, -41667.16, -41931.04, -71448.11, -91274.09, -38130.67, -40628.50, 0.000, 0.000, 0.000, 17:08:05.330
14, 140476.23, 135123.05, -88769.05, -73883.53, -9787.83, -36779.50, -36182.15, -35899.27, -30399.69, -53311.50, -41659.40, -41918.04, -71447.15, -91274.30, -38115.40, -40624.07, 0.000, 0.000, 0.000, 17:08:05.330
15, 140478.98, 135118.39, -88774.33, -73887.58, -9807.21, -36768.66, -36184.43, -35896.12, -30399.69, -53311.50, -41659.40, -41918.04, -71447.15, -91274.30, -38115.40, -40624.07, 0.000, 0.000, 0.000, 17:08:05.331
16, 140478.98, 135118.39, -88774.33, -73887.58, -9807.21, -36768.66, -36184.43, -35896.12, -30406.55, -53322.25, -41667.16, -41918.66, -71457.07, -91283.94, -38111.45, -40632.14, 0.000, 0.000, 0.000, 17:08:05.331
17, 140479.66, 135135.53, -88770.64, -73884.88, -9801.78, -36783.82, -36186.78, -35900.48, -30406.55, -53322.25, -41667.16, -41918.66, -71457.07, -91283.94, -38111.45, -40632.14, 0.000, 0.000, 0.000, 17:08:05.331
18, 140479.66, 135135.53, -88770.64, -73884.88, -9801.78, -36783.82, -36186.78, -35900.48, -30397.46, -53302.43, -41633.68, -41913.90, -71443.33, -91273.13, -38111.00, -40626.20, 0.062, 0.936, -0.276, 17:08:05.331
19, 140484.17, 135127.16, -88767.65, -73889.73, -9797.82, -36779.41, -36175.38, -35889.75, -30397.46, -53302.43, -41633.68, -41913.90, -71443.33, -91273.13, -38111.00, -40626.20, 0.000, 0.000, 0.000, 17:08:05.331
20, 140484.17, 135127.16, -88767.65, -73889.73, -9797.82, -36779.41, -36175.38, -35889.75, -30410.98, -53309.29, -41689.67, -41920.67, -71447.70, -91278.11, -38120.27, -40623.82, 0.000, 0.000, 0.000, 17:08:05.332
21, 140484.20, 135120.17, -88764.23, -73886.41, -9808.12, -36775.64, -36172.23, -35884.14, -30410.98, -53309.29, -41689.67, -41920.67, -71447.70, -91278.11, -38120.27, -40623.82, 0.000, 0.000, 0.000, 17:08:05.332
22, 140484.20, 135120.17, -88764.23, -73886.41, -9808.12, -36775.64, -36172.23, -35884.14, -30406.13, -53307.10, -41669.75, -41920.05, -71441.63, -91269.45, -38119.13, -40633.10, 0.000, 0.000, 0.000, 17:08:05.332
23, 140483.38, 135134.33, -88767.85, -73892.00, -9797.15, -36788.13, -36180.16, -35892.99, -30406.13, -53307.10, -41669.75, -41920.05, -71441.63, -91269.45, -38119.13, -40633.10, 0.000, 0.000, 0.000, 17:08:05.332
24, 140483.38, 135134.33, -88767.85, -73892.00, -9797.15, -36788.13, -36180.16, -35892.99, -30416.28, -53309.98, -41656.50, -41923.09, -71449.25, -91275.38, -38116.81, -40649.30, 0.000, 0.000, 0.000, 17:08:05.332
25, 140484.52, 135130.02, -88772.86, -73900.41, -9810.85, -36789.16, -36187.47, -35895.98, -30416.28, -53309.98, -41656.50, -41923.09, -71449.25, -91275.38, -38116.81, -40649.30, 0.000, 0.000, 0.000, 17:08:05.333
26, 140484.52, 135130.02, -88772.86, -73900.41, -9810.85, -36789.16, -36187.47, -35895.98, -30416.52, -53321.14, -41653.43, -41908.09, -71456.47, -91274.15, -38132.14, -40650.11, 0.000, 0.000, 0.000, 17:08:05.333
27, 140484.73, 135139.45, -88774.84, -73896.52, -9806.45, -36791.55, -36186.31, -35897.08, -30416.52, -53321.14, -41653.43, -41908.09, -71456.47, -91274.15, -38132.14, -40650.11, 0.000, 0.000, 0.000, 17:08:05.333
28, 140484.73, 135139.45, -88774.84, -73896.52, -9806.45, -36791.55, -36186.31, -35897.08, -30419.67, -53325.09, -41669.93, -41927.67, -71461.63, -91278.69, -38130.84, -40650.00, 0.060, 0.938, -0.270, 17:08:05.334
29, 140477.33, 135150.31, -88782.42, -73903.91, -9793.66, -36791.62, -36193.69, -35897.28, -30419.67, -53325.09, -41669.93, -41927.67, -71461.63, -91278.69, -38130.84, -40650.00, 0.000, 0.000, 0.000, 17:08:05.334
30, 140477.33, 135150.31, -88782.42, -73903.91, -9793.66, -36791.62, -36193.69, -35897.28, -30426.09, -53317.71, -41690.54, -41946.58, -71461.70, -91281.39, -38148.41, -40666.09, 0.000, 0.000, 0.000, 17:08:05.334
31, 140488.55, 135133.84, -88769.97, -73894.91, -9798.42, -36788.06, -36187.76, -35895.20, -30426.09, -53317.71, -41690.54, -41946.58, -71461.70, -91281.39, -38148.41, -40666.09, 0.000, 0.000, 0.000, 17:08:05.335
32, 140488.55, 135133.84, -88769.97, -73894.91, -9798.42, -36788.06, -36187.76, -35895.20, -30407.67, -53304.57, -41660.21, -41929.70, -71446.09, -91264.63, -38152.71, -40662.23, 0.000, 0.000, 0.000, 17:08:05.335
33, 140494.66, 135122.69, -88763.45, -73886.30, -9771.53, -36785.47, -36180.21, -35887.47, -30407.67, -53304.57, -41660.21, -41929.70, -71446.09, -91264.63, -38152.71, -40662.23, 0.000, 0.000, 0.000, 17:08:05.336
34, 140494.66, 135122.69, -88763.45, -73886.30, -9771.53, -36785.47, -36180.21, -35887.47, -30407.00, -53304.26, -41652.90, -41914.86, -71444.09, -91261.72, -38146.02, -40658.34, 0.000, 0.000, 0.000, 17:08:05.336
35, 140497.23, 135106.44, -88766.82, -73894.02, -9798.96, -36781.36, -36168.61, -35881.59, -30407.00, -53304.26, -41652.90, -41914.86, -71444.09, -91261.72, -38146.02, -40658.34, 0.000, 0.000, 0.000, 17:08:05.336
36, 140497.23, 135106.44, -88766.82, -73894.02, -9798.96, -36781.36, -36168.61, -35881.59, -30419.58, -53318.34, -41675.14, -41919.24, -71457.16, -91273.44, -38146.96, -40670.54, 0.000, 0.000, 0.000, 17:08:05.336
37, 140481.56, 135137.45, -88785.26, -73906.78, -9790.09, -36801.05, -36161.34, -35901.84, -30419.58, -53318.34, -41675.14, -41919.24, -71457.16, -91273.44, -38146.96, -40670.54, 0.000, 0.000, 0.000, 17:08:05.336
38, 140481.56, 135137.45, -88785.26, -73906.78, -9790.09, -36801.05, -36161.34, -35901.84, -30426.71, -53330.77, -41686.07, -41921.28, -71467.15, -91283.78, -38144.95, -40686.79, 0.062, 0.938, -0.272, 17:08:05.337
39, 140480.16, 135143.34, -88789.10, -73910.60, -9802.78, -36803.09, -36167.29, -35901.82, -30426.71, -53330.77, -41686.07, -41921.28, -71467.15, -91283.78, -38144.95, -40686.79, 0.000, 0.000, 0.000, 17:08:05.337
40, 140480.16, 135143.34, -88789.10, -73910.60, -9802.78, -36803.09, -36167.29, -35901.82, -30421.44, -53321.36, -41675.03, -41931.54, -71464.34, -91283.36, -38154.45, -40676.51, 0.000, 0.000, 0.000, 17:08:05.337
41, 140492.64, 135139.56, -88783.36, -73911.43, -9809.93, -36796.60, -36161.25, -35898.02, -30421.44, -53321.36, -41675.03, -41931.54, -71464.34, -91283.36, -38154.45, -40676.51, 0.000, 0.000, 0.000, 17:08:05.338
42, 140492.64, 135139.56, -88783.36, -73911.43, -9809.93, -36796.60, -36161.25, -35898.02, -30425.35, -53321.70, -41694.99, -41940.81, -71467.82, -91285.30, -38127.85, -40673.22, 0.000, 0.000, 0.000, 17:08:05.338
43, 140480.22, 135176.47, -88792.19, -73920.21, -9797.35, -36809.68, -36165.32, -35906.58, -30425.35, -53321.70, -41694.99, -41940.81, -71467.82, -91285.30, -38127.85, -40673.22, 0.000, 0.000, 0.000, 17:08:05.338
44, 140480.22, 135176.47, -88792.19, -73920.21, -9797.35, -36809.68, -36165.32, -35906.58, -30439.50, -53328.45, -41680.50, -41939.43, -71474.98, -91292.99, -38128.12, -40681.00, 0.000, 0.000, 0.000, 17:08:05.339
45, 140479.17, 135174.36, -88788.16, -73927.99, -9817.04, -36804.23, -36175.83, -35909.17, -30439.50, -53328.45, -41680.50, -41939.43, -71474.98, -91292.99, -38128.12, -40681.00, 0.000, 0.000, 0.000, 17:08:05.339
46, 140479.17, 135174.36, -88788.16, -73927.99, -9817.04, -36804.23, -36175.83, -35909.17, -30437.80, -53331.33, -41682.94, -41927.36, -71471.02, -91286.64, -38151.14, -40675.61, 0.000, 0.000, 0.000, 17:08:05.339
47, 140486.16, 135191.17, -88779.31, -73912.50, -9797.35, -36798.77, -36167.07, -35905.82, -30437.80, -53331.33, -41682.94, -41927.36, -71471.02, -91286.64, -38151.14, -40675.61, 0.000, 0.000, 0.000, 17:08:05.339
48, 140486.16, 135191.17, -88779.31, -73912.50, -9797.35, -36798.77, -36167.07, -35905.82, -30421.46, -53310.50, -41680.44, -41914.32, -71456.80, -91270.95, -38152.08, -40665.11, 0.062, 0.938, -0.274, 17:08:05.340
49, 140498.19, 135180.08, -88767.16, -73909.21, -9791.92, -36783.39, -36162.93, -35894.11, -30421.46, -53310.50, -41680.44, -41914.32, -71456.80, -91270.95, -38152.08, -40665.11, 0.000, 0.000, 0.000, 17:08:05.340
50, 140498.19, 135180.08, -88767.16, -73909.21, -9791.92, -36783.39, -36162.93, -35894.11, -30418.35, -53306.70, -41686.56, -41910.17, -71450.03, -91266.04, -38165.25, -40649.93, 0.000, 0.000, 0.000, 17:08:05.341
51, 140501.41, 135180.84, -88772.52, -73912.77, -9781.62, -36781.11, -36165.43, -35889.01, -30418.35, -53306.70, -41686.56, -41910.17, -71450.03, -91266.04, -38165.25, -40649.93, 0.000, 0.000, 0.000, 17:08:05.342
52, 140501.41, 135180.84, -88772.52, -73912.77, -9781.62, -36781.11, -36165.43, -35889.01, -30421.44, -53311.68, -41679.72, -41923.54, -71455.69, -91273.95, -38146.18, -40655.88, 0.000, 0.000, 0.000, 17:08:05.342
53, 140501.77, 135200.28, -88773.68, -73916.88, -9769.17, -36790.03, -36166.60, -35893.70, -30421.44, -53311.68, -41679.72, -41923.54, -71455.69, -91273.95, -38146.18, -40655.88, 0.000, 0.000, 0.000, 17:08:05.343
54, 140501.77, 135200.28, -88773.68, -73916.88, -9769.17, -36790.03, -36166.60, -35893.70, -30428.19, -53313.82, -41687.37, -41936.63, -71460.20, -91277.32, -38131.43, -40656.41, 0.000, 0.000, 0.000, 17:08:05.343
55, 140498.44, 135211.31, -88783.27, -73927.16, -9782.69, -36794.12, -36178.40, -35902.20, -30428.19, -53313.82, -41687.37, -41936.63, -71460.20, -91277.32, -38131.43, -40656.41, 0.000, 0.000, 0.000, 17:08:05.343
56, 140498.44, 135211.31, -88783.27, -73927.16, -9782.69, -36794.12, -36178.40, -35902.20, -30427.72, -53313.22, -41673.62, -41916.31, -71461.16, -91276.59, -38152.30, -40658.71, 0.000, 0.000, 0.000, 17:08:05.344
57, 140505.81, 135219.41, -88778.96, -73918.96, -9761.05, -36798.55, -36173.10, -35899.09, -30427.72, -53313.22, -41673.62, -41916.31, -71461.16, -91276.59, -38152.30, -40658.71, 0.000, 0.000, 0.000, 17:08:05.344
58, 140505.81, 135219.41, -88778.96, -73918.96, -9761.05, -36798.55, -36173.10, -35899.09, -30434.65, -53318.05, -41683.54, -41943.94, -71459.24, -91272.52, -38146.13, -40656.14, 0.060, 0.942, -0.272, 17:08:05.345
59, 140501.61, 135230.16, -88784.48, -73921.69, -9761.70, -36803.78, -36178.44, -35898.24, -30434.65, -53318.05, -41683.54, -41943.94, -71459.24, -91272.52, -38146.13, -40656.14, 0.000, 0.000, 0.000, 17:08:05.345
60, 140501.61, 135230.16, -88784.48, -73921.69, -9761.70, -36803.78, -36178.44, -35898.24, -30437.44, -53314.63, -41680.14, -41927.82, -71458.34, -91271.22, -38162.94, -40661.67, 0.000, 0.000, 0.000, 17:08:05.346
61, 140509.77, 135209.59, -88778.47, -73909.21, -9782.35, -36789.63, -36179.20, -35892.34, -30437.44, -53314.63, -41680.14, -41927.82, -71458.34, -91271.22, -38162.94, -40661.67, 0.000, 0.000, 0.000, 17:08:05.346
62, 140509.77, 135209.59, -88778.47, -73909.21, -9782.35, -36789.63, -36179.20, -35892.34, -30434.67, -53313.56, -41678.11, -41932.96, -71456.55, -91267.31, -38169.29, -40659.70, 0.000, 0.000, 0.000, 17:08:05.346
63, 140512.69, 135204.92, -88775.36, -73896.50, -9769.77, -36784.98, -36171.04, -35890.08, -30434.67, -53313.56, -41678.11, -41932.96, -71456.55, -91267.31, -38169.29, -40659.70, 0.000, 0.000, 0.000, 17:08:05.347
64, 140512.69, 135204.92, -88775.36, -73896.50, -9769.77, -36784.98, -36171.04, -35890.08, -30427.34, -53307.14, -41663.63, -41912.56, -71447.53, -91261.61, -38179.97, -40650.47, 0.000, 0.000, 0.000, 17:08:05.347
65, 140520.61, 135173.52, -88768.92, -73896.66, -9777.66, -36772.15, -36173.21, -35878.53, -30427.34, -53307.14, -41663.63, -41912.56, -71447.53, -91261.61, -38179.97, -40650.47, 0.000, 0.000, 0.000, 17:08:05.347
66, 140520.61, 135173.52, -88768.92, -73896.66, -9777.66, -36772.15, -36173.21, -35878.53, -30441.76, -53312.66, -41682.96, -41917.61, -71454.23, -91274.53, -38176.06, -40651.56, 0.000, 0.000, 0.000, 17:08:05.347
67, 140511.58, 135191.02, -88779.67, -73893.08, -9755.08, -36783.46, -36183.94, -35887.47, -30441.76, -53312.66, -41682.96, -41917.61, -71454.23, -91274.53, -38176.06, -40651.56, 0.000, 0.000, 0.000, 17:08:05.348
68, 140511.58, 135191.02, -88779.67, -73893.08, -9755.08, -36783.46, -36183.94, -35887.47, -30437.38, -53308.06, -41695.97, -41927.25, -71448.96, -91270.87, -38165.91, -40656.41, 0.058, 0.944, -0.276, 17:08:05.348
69, 140533.84, 135169.44, -88761.99, -73868.65, -9756.83, -36766.90, -36176.25, -35879.04, -30437.38, -53308.06, -41695.97, -41927.25, -71448.96, -91270.87, -38165.91, -40656.41, 0.000, 0.000, 0.000, 17:08:05.348
70, 140533.84, 135169.44, -88761.99, -73868.65, -9756.83, -36766.90, -36176.25, -35879.04, -30429.80, -53291.18, -41664.72, -41922.44, -71433.94, -91263.69, -38182.70, -40681.31, 0.000, 0.000, 0.000, 17:08:05.349
71, 140543.81, 135141.66, -88758.64, -73865.94, -9760.74, -36763.23, -36178.31, -35879.33, -30429.80, -53291.18, -41664.72, -41922.44, -71433.94, -91263.69, -38182.70, -40681.31, 0.000, 0.000, 0.000, 17:08:05.349
72, 140543.81, 135141.66, -88758.64, -73865.94, -9760.74, -36763.23, -36178.31, -35879.33, -30426.31, -53289.38, -41644.79, -41927.27, -71434.45, -91266.66, -38174.79, -40698.12, 0.000, 0.000, 0.000, 17:08:05.349
73, 140543.34, 135147.56, -88762.40, -73859.21, -9749.14, -36778.65, -36185.24, -35889.70, -30426.31, -53289.38, -41644.79, -41927.27, -71434.45, -91266.66, -38174.79, -40698.12, 0.000, 0.000, 0.000, 17:08:05.349
74, 140543.34, 135147.56, -88762.40, -73859.21, -9749.14, -36778.65, -36185.24, -35889.70, -30431.23, -53298.58, -41664.45, -41912.29, -71440.20, -91274.09, -38167.17, -40698.97, 0.000, 0.000, 0.000, 17:08:05.350
75, 140540.05, 135143.84, -88766.28, -73853.80, -9765.75, -36773.65, -36183.79, -35883.80, -30431.23, -53298.58, -41664.45, -41912.29, -71440.20, -91274.09, -38167.17, -40698.97, 0.000, 0.000, 0.000, 17:08:05.350
76, 140540.05, 135143.84, -88766.28, -73853.80, -9765.75, -36773.65, -36183.79, -35883.80, -30431.36, -53299.90, -41663.79, -41903.20, -71441.29, -91273.28, -38182.54, -40696.16, 0.000, 0.000, 0.000, 17:08:05.350
77, 140537.14, 135152.80, -88769.73, -73843.92, -9747.17, -36772.53, -36177.64, -35882.77, -30431.36, -53299.90, -41663.79, -41903.20, -71441.29, -91273.28, -38182.54, -40696.16, 0.000, 0.000, 0.000, 17:08:05.350
78, 140537.14, 135152.80, -88769.73, -73843.92, -9747.17, -36772.53, -36177.64, -35882.77, -30443.10, -53312.62, -41698.83, -41935.49, -71456.40, -91283.02, -38163.66, -40713.21, 0.060, 0.938, -0.280, 17:08:05.350
79, 140516.27, 135206.50, -88795.21, -73860.64, -9756.29, -36800.85, -36207.54, -35904.10, -30443.10, -53312.62, -41698.83, -41935.49, -71456.40, -91283.02, -38163.66, -40713.21, 0.000, 0.000, 0.000, 17:08:05.351
80, 140516.27, 135206.50, -88795.21, -73860.64, -9756.29, -36800.85, -36207.54, -35904.10, -30450.74, -53317.27, -41680.84, -41952.05, -71458.14, -91286.16, -38192.29, -40723.16, 0.000, 0.000, 0.000, 17:08:05.351
81, 140533.06, 135208.05, -88780.05, -73844.93, -9768.05, -36786.84, -36193.57, -35897.19, -30450.74, -53317.27, -41680.84, -41952.05, -71458.14, -91286.16, -38192.29, -40723.16, 0.000, 0.000, 0.000, 17:08:05.351
82, 140533.06, 135208.05, -88780.05, -73844.93, -9768.05, -36786.84, -36193.57, -35897.19, -30443.10, -53317.71, -41681.40, -41921.43, -71446.56, -91278.71, -38188.71, -40723.80, 0.000, 0.000, 0.000, 17:08:05.351
83, 140529.92, 135228.00, -88782.78, -73841.89, -9757.94, -36790.77, -36189.20, -35902.24, -30443.10, -53317.71, -41681.40, -41921.43, -71446.56, -91278.71, -38188.71, -40723.80, 0.000, 0.000, 0.000, 17:08:05.351
84, 140529.92, 135228.00, -88782.78, -73841.89, -9757.94, -36790.77, -36189.20, -35902.24, -30438.22, -53312.39, -41666.54, -41934.08, -71437.54, -91274.62, -38193.90, -40724.27, 0.000, 0.000, 0.000, 17:08:05.351
85, 140543.45, 135210.19, -88770.06, -73831.50, -9774.02, -36775.23, -36180.41, -35884.41, -30438.22, -53312.39, -41666.54, -41934.08, -71437.54, -91274.62, -38193.90, -40724.27, 0.000, 0.000, 0.000, 17:08:05.352
86, 140543.45, 135210.19, -88770.06, -73831.50, -9774.02, -36775.23, -36180.41, -35884.41, -30432.23, -53296.59, -41644.88, -41928.12, -71428.73, -91268.36, -38189.45, -40712.67, 0.000, 0.000, 0.000, 17:08:05.352
87, 140541.19, 135236.91, -88776.37, -73837.55, -9742.39, -36782.61, -36186.38, -35888.90, -30432.23, -53296.59, -41644.88, -41928.12, -71428.73, -91268.36, -38189.45, -40712.67, 0.000, 0.000, 0.000, 17:08:05.352
88, 140541.19, 135236.91, -88776.37, -73837.55, -9742.39, -36782.61, -36186.38, -35888.90, -30448.71, -53306.88, -41686.52, -41933.23, -71439.99, -91281.44, -38164.55, -40725.14, 0.066, 0.938, -0.282, 17:08:05.352
89, 140537.91, 135267.70, -88779.23, -73840.82, -9746.99, -36785.29, -36195.23, -35891.09, -30448.71, -53306.88, -41686.52, -41933.23, -71439.99, -91281.44, -38164.55, -40725.14, 0.000, 0.000, 0.000, 17:08:05.352
90, 140537.91, 135267.70, -88779.23, -73840.82, -9746.99, -36785.29, -36195.23, -35891.09, -30442.09, -53300.80, -41674.36, -41921.48, -71429.18, -91277.57, -38184.20, -40721.50, 0.000, 0.000, 0.000, 17:08:05.353
91, 140547.92, 135252.38, -88768.63, -73834.05, -9759.24, -36770.16, -36184.30, -35878.66, -30442.09, -53300.80, -41674.36, -41921.48, -71429.18, -91277.57, -38184.20, -40721.50, 0.000, 0.000, 0.000, 17:08:05.353
92, 140547.92, 135252.38, -88768.63, -73834.05, -9759.24, -36770.16, -36184.30, -35878.66, -30442.02, -53304.35, -41665.89, -41907.98, -71427.79, -91277.19, -38169.74, -40712.70, 0.000, 0.000, 0.000, 17:08:05.353
93, 140535.31, 135306.45, -88782.76, -73852.71, -9740.80, -36782.61, -36198.45, -35890.84, -30442.02, -53304.35, -41665.89, -41907.98, -71427.79, -91277.19, -38169.74, -40712.70, 0.000, 0.000, 0.000, 17:08:05.353
94, 140535.31, 135306.45, -88782.76, -73852.71, -9740.80, -36782.61, -36198.45, -35890.84, -30454.70, -53311.46, -41682.18, -41942.22, -71438.48, -91291.20, -38160.71, -40724.27, 0.000, 0.000, 0.000, 17:08:05.353
95, 140537.39, 135325.48, -88780.63, -73849.00, -9775.62, -36774.68, -36202.76, -35890.51, -30454.70, -53311.46, -41682.18, -41942.22, -71438.48, -91291.20, -38160.71, -40724.27, 0.000, 0.000, 0.000, 17:08:05.354
96, 140537.39, 135325.48, -88780.63, -73849.00, -9775.62, -36774.68, -36202.76, -35890.51, -30448.53, -53308.75, -41691.72, -41923.00, -71436.15, -91284.14, -38183.98, -40722.95, 0.000, 0.000, 0.000, 17:08:05.354
97, 140527.58, 135370.45, -88791.34, -73853.60, -9758.59, -36780.71, -36208.80, -35896.74, -30448.53, -53308.75, -41691.72, -41923.00, -71436.15, -91284.14, -38183.98, -40722.95, 0.000, 0.000, 0.000, 17:08:05.354
98, 140527.58, 135370.45, -88791.34, -73853.60, -9758.59, -36780.71, -36208.80, -35896.74, -30459.53, -53324.91, -41695.05, -41940.50, -71447.37, -91291.96, -38177.85, -40739.99, 0.058, 0.940, -0.284, 17:08:05.354
99, 140522.53, 135398.45, -88791.56, -73848.82, -9765.19, -36770.47, -36203.68, -35894.71, -30459.53, -53324.91, -41695.05, -41940.50, -71447.37, -91291.96, -38177.85, -40739.99, 0.000, 0.000, 0.000, 17:08:05.354
100, 140522.53, 135398.45, -88791.56, -73848.82, -9765.19, -36770.47, -36203.68, -35894.71, -30461.00, -53319.57, -41679.52, -41947.79, -71443.26, -91286.27, -38205.97, -40732.59, 0.000, 0.000, 0.000, 17:08:05.355
101, 140529.55, 135378.56, -88787.63, -73839.55, -9783.54, -36761.60, -36184.12, -35878.84, -30461.00, -53319.57, -41679.52, -41947.79, -71443.26, -91286.27, -38205.97, -40732.59, 0.000, 0.000, 0.000, 17:08:05.355
102, 140529.55, 135378.56, -88787.63, -73839.55, -9783.54, -36761.60, -36184.12, -35878.84, -30465.07, -53319.97, -41680.05, -41941.13, -71443.37, -91285.46, -38202.37, -40728.43, 0.000, 0.000, 0.000, 17:08:05.355
103, 140525.39, 135381.36, -88796.08, -73845.04, -9749.70, -36766.96, -36196.10, -35888.52, -30465.07, -53319.97, -41680.05, -41941.13, -71443.37, -91285.46, -38202.37, -40728.43, 0.000, 0.000, 0.000, 17:08:05.355
104, 140525.39, 135381.36, -88796.08, -73845.04, -9749.70, -36766.96, -36196.10, -35888.52, -30464.62, -53322.07, -41694.05, -41936.70, -71444.47, -91284.97, -38208.83, -40729.79, 0.000, 0.000, 0.000, 17:08:05.356
105, 140539.63, 135351.86, -88788.32, -73835.99, -9759.53, -36754.22, -36193.55, -35878.55, -30464.62, -53322.07, -41694.05, -41936.70, -71444.47, -91284.97, -38208.83, -40729.79, 0.000, 0.000, 0.000, 17:08:05.356
106, 140539.63, 135351.86, -88788.32, -73835.99, -9759.53, -36754.22, -36193.55, -35878.55, -30460.55, -53314.81, -41683.32, -41935.43, -71439.34, -91283.23, -38229.46, -40729.39, 0.000, 0.000, 0.000, 17:08:05.357
107, 140538.00, 135355.88, -88800.95, -73846.45, -9744.71, -36758.43, -36204.66, -35888.45, -30460.55, -53314.81, -41683.32, -41935.43, -71439.34, -91283.23, -38229.46, -40729.39, 0.000, 0.000, 0.000, 17:08:05.357
108, 140538.00, 135355.88, -88800.95, -73846.45, -9744.71, -36758.43, -36204.66, -35888.45, -30473.38, -53330.07, -41705.83, -41942.45, -71452.98, -91296.03, -38235.88, -40744.93, 0.056, 0.942, -0.286, 17:08:05.357
109, 140537.58, 135356.86, -88801.13, -73844.02, -9749.61, -36741.84, -36205.24, -35891.49, -30473.38, -53330.07, -41705.83, -41942.45, -71452.98, -91296.03, -38235.88, -40744.93, 0.000, 0.000, 0.000, 17:08:05.358
110, 140537.58, 135356.86, -88801.13, -73844.02, -9749.61, -36741.84, -36205.24, -35891.49, -30468.58, -53315.23, -41686.79, -41946.58, -71439.55, -91287.85, -38248.53, -40737.44, 0.000, 0.000, 0.000, 17:08:05.359
111, 140544.91, 135334.58, -88789.30, -73841.82, -9748.11, -36720.85, -36200.82, -35886.26, -30468.58, -53315.23, -41686.79, -41946.58, -71439.55, -91287.85, -38248.53, -40737.44, 0.000, 0.000, 0.000, 17:08:05.360
112, 140544.91, 135334.58, -88789.30, -73841.82, -9748.11, -36720.85, -36200.82, -35886.26, -30474.32, -53323.04, -41689.82, -41951.99, -71442.77, -91291.36, -38221.95, -40739.07, 0.000, 0.000, 0.000, 17:08:05.361
113, 140545.50, 135344.84, -88782.87, -73839.77, -9731.23, -36729.30, -36203.05, -35888.74, -30474.32, -53323.04, -41689.82, -41951.99, -71442.77, -91291.36, -38221.95, -40739.07, 0.000, 0.000, 0.000, 17:08:05.361
114, 140545.50, 135344.84, -88782.87, -73839.77, -9731.23, -36729.30, -36203.05, -35888.74, -30462.68, -53313.65, -41666.18, -41933.28, -71429.65, -91284.34, -38213.41, -40721.73, 0.000, 0.000, 0.000, 17:08:05.362
115, 140550.17, 135322.86, -88780.59, -73843.68, -9750.75, -36729.44, -36198.00, -35874.75, -30462.68, -53313.65, -41666.18, -41933.28, -71429.65, -91284.34, -38213.41, -40721.73, 0.000, 0.000, 0.000, 17:08:05.362
116, 140550.17, 135322.86, -88780.59, -73843.68, -9750.75, -36729.44, -36198.00, -35874.75, -30469.00, -53317.36, -41694.32, -41929.12, -71434.59, -91288.25, -38202.75, -40723.60, 0.000, 0.000, 0.000, 17:08:05.363
117, 140545.59, 135357.16, -88787.01, -73841.13, -9735.50, -36744.32, -36205.71, -35883.24, -30469.00, -53317.36, -41694.32, -41929.12, -71434.59, -91288.25, -38202.75, -40723.60, 0.000, 0.000, 0.000, 17:08:05.363
118, 140545.59, 135357.16, -88787.01, -73841.13, -9735.50, -36744.32, -36205.71, -35883.24, -30469.90, -53324.67, -41684.66, -41928.52, -71435.91, -91284.39, -38195.60, -40743.59, 0.052, 0.944, -0.282, 17:08:05.364
119, 140546.88, 135378.34, -88788.41, -73845.31, -9737.11, -36756.88, -36204.71, -35883.76, -30469.90, -53324.67, -41684.66, -41928.52, -71435.91, -91284.39, -38195.60, -40743.59, 0.000, 0.000, 0.000, 17:08:05.364
120, 140546.88, 135378.34, -88788.41, -73845.31, -9737.11, -36756.88, -36204.71, -35883.76, -30469.90, -53313.09, -41671.59, -41934.35, -71433.52, -91280.07, -38220.10, -40749.82, 0.000, 0.000, 0.000, 17:08:05.364
121, 140552.23, 135361.78, -88788.19, -73844.22, -9743.21, -36755.54, -36207.79, -35882.73, -30469.90, -53313.09, -41671.59, -41934.35, -71433.52, -91280.07, -38220.10, -40749.82, 0.000, 0.000, 0.000, 17:08:05.364
122, 140552.23, 135361.78, -88788.19, -73844.22, -9743.21, -36755.54, -36207.79, -35882.73, -30471.89, -53316.64, -41697.80, -41944.23, -71434.85, -91276.54, -38228.16, -40756.93, 0.000, 0.000, 0.000, 17:08:05.809
123, 140546.83, 135369.67, -88791.20, -73842.27, -9728.62, -36760.44, -36207.66, -35889.59, -30471.89, -53316.64, -41697.80, -41944.23, -71434.85, -91276.54, -38228.16, -40756.93, 0.000, 0.000, 0.000, 17:08:05.809
124, 140546.83, 135369.67, -88791.20, -73842.27, -9728.62, -36760.44, -36207.66, -35889.59, -30471.46, -53317.00, -41696.82, -41932.41, -71433.20, -91273.19, -38236.28, -40754.49, 0.000, 0.000, 0.000, 17:08:05.809
125, 140546.92, 135353.69, -88792.03, -73843.43, -9744.24, -36754.29, -36206.32, -35883.94, -30471.46, -53317.00, -41696.82, -41932.41, -71433.20, -91273.19, -38236.28, -40754.49, 0.000, 0.000, 0.000, 17:08:05.810
126, 140546.92, 135353.69, -88792.03, -73843.43, -9744.24, -36754.29, -36206.32, -35883.94, -30486.08, -53323.77, -41707.64, -41958.07, -71446.77, -91289.39, -38234.33, -40764.66, 0.000, 0.000, 0.000, 17:08:05.810
127, 140531.67, 135388.42, -88804.77, -73861.60, -9747.01, -36773.09, -36209.18, -35892.34, -30486.08, -53323.77, -41707.64, -41958.07, -71446.77, -91289.39, -38234.33, -40764.66, 0.000, 0.000, 0.000, 17:08:05.810
128, 140531.67, 135388.42, -88804.77, -73861.60, -9747.01, -36773.09, -36209.18, -35892.34, -30490.73, -53342.10, -41692.59, -41952.88, -71453.61, -91299.79, -38226.93, -40774.77, 0.056, 0.946, -0.278, 17:08:05.810
129, 140536.80, 135391.69, -88803.32, -73861.02, -9754.37, -36764.71, -36208.17, -35887.25, -30490.73, -53342.10, -41692.59, -41952.88, -71453.61, -91299.79, -38226.93, -40774.77, 0.000, 0.000, 0.000, 17:08:05.811
130, 140536.80, 135391.69, -88803.32, -73861.02, -9754.37, -36764.71, -36208.17, -35887.25, -30480.04, -53326.16, -41702.57, -41948.32, -71442.95, -91293.41, -38247.68, -40765.60, 0.000, 0.000, 0.000, 17:08:05.811
131, 140553.27, 135363.17, -88795.70, -73854.72, -9752.09, -36759.01, -36205.29, -35904.05, -30480.04, -53326.16, -41702.57, -41948.32, -71442.95, -91293.41, -38247.68, -40765.60, 0.000, 0.000, 0.000, 17:08:05.812
132, 140553.27, 135363.17, -88795.70, -73854.72, -9752.09, -36759.01, -36205.29, -35904.05, -30475.39, -53325.25, -41699.03, -41955.25, -71441.16, -91294.00, -38240.95, -40763.37, 0.000, 0.000, 0.000, 17:08:05.812
133, 140552.13, 135375.77, -88799.86, -73859.28, -9728.19, -36766.88, -36205.64, -35921.42, -30475.39, -53325.25, -41699.03, -41955.25, -71441.16, -91294.00, -38240.95, -40763.37, 0.000, 0.000, 0.000, 17:08:05.812
134, 140552.13, 135375.77, -88799.86, -73859.28, -9728.19, -36766.88, -36205.64, -35921.42, -30480.04, -53324.29, -41715.66, -41952.26, -71440.27, -91295.01, -38229.95, -40763.14, 0.000, 0.000, 0.000, 17:08:05.812
135, 140552.53, 135368.70, -88796.34, -73858.86, -9756.11, -36770.96, -36209.96, -35919.23, -30480.04, -53324.29, -41715.66, -41952.26, -71440.27, -91295.01, -38229.95, -40763.14, 0.000, 0.000, 0.000, 17:08:05.812
136, 140552.53, 135368.70, -88796.34, -73858.86, -9756.11, -36770.96, -36209.96, -35919.23, -30488.36, -53334.73, -41705.52, -41953.95, -71441.58, -91297.73, -38236.68, -40760.42, 0.000, 0.000, 0.000, 17:08:05.812
137, 140549.17, 135402.55, -88800.35, -73859.02, -9745.47, -36777.54, -36219.08, -35923.99, -30488.36, -53334.73, -41705.52, -41953.95, -71441.58, -91297.73, -38236.68, -40760.42, 0.000, 0.000, 0.000, 17:08:05.813
138, 140549.17, 135402.55, -88800.35, -73859.02, -9745.47, -36777.54, -36219.08, -35923.99, -30491.27, -53339.15, -41719.06, -41947.59, -71443.15, -91299.12, -38227.83, -40763.43, 0.060, 0.946, -0.280, 17:08:05.813
139, 140556.44, 135415.06, -88791.25, -73852.71, -9744.56, -36770.68, -36215.68, -35920.06, -30491.27, -53339.15, -41719.06, -41947.59, -71443.15, -91299.12, -38227.83, -40763.43, 0.000, 0.000, 0.000, 17:08:05.813
140, 140556.44, 135415.06, -88791.25, -73852.71, -9744.56, -36770.68, -36215.68, -35920.06, -30482.23, -53324.80, -41715.11, -41942.31, -71430.83, -91288.01, -38247.23, -40745.73, 0.000, 0.000, 0.000, 17:08:05.813
141, 140563.50, 135397.83, -88787.88, -73845.02, -9743.33, -36766.88, -36209.82, -35915.34, -30482.23, -53324.80, -41715.11, -41942.31, -71430.83, -91288.01, -38247.23, -40745.73, 0.000, 0.000, 0.000, 17:08:05.813
142, 140563.50, 135397.83, -88787.88, -73845.02, -9743.33, -36766.88, -36209.82, -35915.34, -30484.69, -53331.71, -41693.80, -41960.46, -71438.36, -91290.29, -38235.72, -40753.84, 0.000, 0.000, 0.000, 17:08:05.813
143, 140557.42, 135423.52, -88800.93, -73857.72, -9737.36, -36774.09, -36217.92, -35923.36, -30484.69, -53331.71, -41693.80, -41960.46, -71438.36, -91290.29, -38235.72, -40753.84, 0.000, 0.000, 0.000, 17:08:05.814
144, 140557.42, 135423.52, -88800.93, -73857.72, -9737.36, -36774.09, -36217.92, -35923.36, -30486.68, -53332.85, -41711.01, -41963.88, -71440.98, -91293.55, -38242.02, -40764.04, 0.000, 0.000, 0.000, 17:08:05.814
145, 140559.31, 135411.53, -88799.21, -73855.93, -9750.23, -36756.88, -36213.31, -35915.79, -30486.68, -53332.85, -41711.01, -41963.88, -71440.98, -91293.55, -38242.02, -40764.04, 0.000, 0.000, 0.000, 17:08:05.814
146, 140559.31, 135411.53, -88799.21, -73855.93, -9750.23, -36756.88, -36213.31, -35915.79, -30496.96, -53344.18, -41716.85, -41940.14, -71447.91, -91298.49, -38242.76, -40779.57, 0.000, 0.000, 0.000, 17:08:05.814
147, 140552.45, 135440.92, -88811.75, -73868.84, -9732.51, -36772.38, -36223.17, -35931.43, -30496.96, -53344.18, -41716.85, -41940.14, -71447.91, -91298.49, -38242.76, -40779.57, 0.000, 0.000, 0.000, 17:08:05.814
148, 140552.45, 135440.92, -88811.75, -73868.84, -9732.51, -36772.38, -36223.17, -35931.43, -30485.23, -53335.73, -41721.14, -41963.05, -71444.60, -91295.79, -38239.74, -40789.85, 0.058, 0.944, -0.278, 17:08:05.815
149, 140567.36, 135433.19, -88800.66, -73857.11, -9735.03, -36760.28, -36208.02, -35921.60, -30485.23, -53335.73, -41721.14, -41963.05, -71444.60, -91295.79, -38239.74, -40789.85, 0.000, 0.000, 0.000, 17:08:05.815
150, 140567.36, 135433.19, -88800.66, -73857.11, -9735.03, -36760.28, -36208.02, -35921.60, -30488.14, -53333.43, -41700.31, -41957.13, -71445.29, -91297.87, -38243.48, -40781.49, 0.000, 0.000, 0.000, 17:08:05.815
151, 140563.44, 135434.63, -88807.12, -73864.94, -9739.79, -36761.67, -36216.87, -35921.87, -30488.14, -53333.43, -41700.31, -41957.13, -71445.29, -91297.87, -38243.48, -40781.49, 0.000, 0.000, 0.000, 17:08:05.816
152, 140563.44, 135434.63, -88807.12, -73864.94, -9739.79, -36761.67, -36216.87, -35921.87, -30481.63, -53335.69, -41720.54, -41948.34, -71446.05, -91294.06, -38241.04, -40785.14, 0.000, 0.000, 0.000, 17:08:05.816
153, 140561.00, 135458.27, -88810.70, -73869.07, -9727.59, -36768.91, -36215.34, -35920.91, -30481.63, -53335.69, -41720.54, -41948.34, -71446.05, -91294.06, -38241.04, -40785.14, 0.000, 0.000, 0.000, 17:08:05.816
154, 140561.00, 135458.27, -88810.70, -73869.07, -9727.59, -36768.91, -36215.34, -35920.91, -30495.51, -53344.65, -41725.52, -41961.46, -71453.49, -91303.77, -38232.39, -40776.18, 0.000, 0.000, 0.000, 17:08:05.816
155, 140568.66, 135447.66, -88801.96, -73865.94, -9762.48, -36760.64, -36207.75, -35913.46, -30495.51, -53344.65, -41725.52, -41961.46, -71453.49, -91303.77, -38232.39, -40776.18, 0.000, 0.000, 0.000, 17:08:05.817
156, 140568.66, 135447.66, -88801.96, -73865.94, -9762.48, -36760.64, -36207.75, -35913.46, -30481.34, -53326.28, -41689.85, -41945.55, -71435.19, -91288.30, -38250.25, -40761.22, 0.000, 0.000, 0.000, 17:08:05.817
157, 140577.47, 135443.25, -88794.76, -73862.97, -9731.93, -36749.51, -36204.26, -35909.26, -30481.34, -53326.28, -41689.85, -41945.55, -71435.19, -91288.30, -38250.25, -40761.22, 0.000, 0.000, 0.000, 17:08:05.817
158, 140577.47, 135443.25, -88794.76, -73862.97, -9731.93, -36749.51, -36204.26, -35909.26, -30488.07, -53335.33, -41718.93, -41950.16, -71440.89, -91293.98, -38229.89, -40766.05, 0.062, 0.940, -0.268, 17:08:05.817
159, 140565.22, 135467.84, -88803.84, -73872.83, -9734.79, -36760.41, -36216.22, -35917.80, -30488.07, -53335.33, -41718.93, -41950.16, -71440.89, -91293.98, -38229.89, -40766.05, 0.000, 0.000, 0.000, 17:08:05.818
160, 140565.22, 135467.84, -88803.84, -73872.83, -9734.79, -36760.41, -36216.22, -35917.80, -30491.27, -53332.00, -41735.06, -41957.57, -71437.54, -91290.53, -38246.25, -40766.81, 0.000, 0.000, 0.000, 17:08:05.818
161, 140579.14, 135462.81, -88791.99, -73861.09, -9736.44, -36754.52, -36209.54, -35910.58, -30491.27, -53332.00, -41735.06, -41957.57, -71437.54, -91290.53, -38246.25, -40766.81, 0.000, 0.000, 0.000, 17:08:05.818
162, 140579.14, 135462.81, -88791.99, -73861.09, -9736.44, -36754.52, -36209.54, -35910.58, -30489.12, -53333.72, -41713.90, -41947.63, -71433.27, -91284.25, -38239.54, -40766.00, 0.000, 0.000, 0.000, 17:08:05.818
163, 140572.42, 135488.00, -88802.05, -73869.79, -9719.28, -36764.37, -36220.62, -35921.60, -30489.12, -53333.72, -41713.90, -41947.63, -71433.27, -91284.25, -38239.54, -40766.00, 0.000, 0.000, 0.000, 17:08:05.819
164, 140572.42, 135488.00, -88802.05, -73869.79, -9719.28, -36764.37, -36220.62, -35921.60, -30491.27, -53335.80, -41717.77, -41951.43, -71438.48, -91289.98, -38252.19, -40772.75, 0.000, 0.000, 0.000, 17:08:05.819
165, 140574.77, 135489.28, -88802.54, -73874.26, -9756.25, -36757.75, -36226.41, -35917.75, -30491.27, -53335.80, -41717.77, -41951.43, -71438.48, -91289.98, -38252.19, -40772.75, 0.000, 0.000, 0.000, 17:08:05.819
166, 140574.77, 135489.28, -88802.54, -73874.26, -9756.25, -36757.75, -36226.41, -35917.75, -30495.11, -53334.30, -41720.65, -41957.42, -71440.84, -91291.72, -38263.86, -40764.95, 0.000, 0.000, 0.000, 17:08:05.819
167, 140578.36, 135493.39, -88798.65, -73869.20, -9748.02, -36758.98, -36219.39, -35918.49, -30495.11, -53334.30, -41720.65, -41957.42, -71440.84, -91291.72, -38263.86, -40764.95, 0.000, 0.000, 0.000, 17:08:05.820
168, 140578.36, 135493.39, -88798.65, -73869.20, -9748.02, -36758.98, -36219.39, -35918.49, -30497.72, -53336.82, -41699.75, -41956.73, -71444.27, -91294.98, -38262.68, -40765.20, 0.056, 0.942, -0.270, 17:08:05.820
169, 140563.81, 135500.63, -88810.97, -73890.57, -9724.01, -36753.75, -36222.30, -35924.73, -30497.72, -53336.82, -41699.75, -41956.73, -71444.27, -91294.98, -38262.68, -40765.20, 0.000, 0.000, 0.000, 17:08:05.820
170, 140563.81, 135500.63, -88810.97, -73890.57, -9724.01, -36753.75, -36222.30, -35924.73, -30508.21, -53346.23, -41725.05, -41959.83, -71452.78, -91303.97, -38269.88, -40772.71, 0.000, 0.000, 0.000, 17:08:05.820
171, 140567.84, 135497.86, -88808.93, -73883.63, -9731.61, -36747.29, -36217.47, -35923.36, -30508.21, -53346.23, -41725.05, -41959.83, -71452.78, -91303.97, -38269.88, -40772.71, 0.000, 0.000, 0.000, 17:08:05.820
172, 140567.84, 135497.86, -88808.93, -73883.63, -9731.61, -36747.29, -36217.47, -35923.36, -30500.29, -53343.57, -41719.53, -41957.89, -71447.05, -91295.52, -38272.98, -40792.38, 0.000, 0.000, 0.000, 17:08:05.821
173, 140576.70, 135488.61, -88801.98, -73880.80, -9715.07, -36743.61, -36217.31, -35922.11, -30500.29, -53343.57, -41719.53, -41957.89, -71447.05, -91295.52, -38272.98, -40792.38, 0.000, 0.000, 0.000, 17:08:05.821
174, 140576.70, 135488.61, -88801.98, -73880.80, -9715.07, -36743.61, -36217.31, -35922.11, -30495.06, -53329.88, -41710.34, -41944.34, -71440.80, -91289.35, -38276.71, -40798.50, 0.000, 0.000, 0.000, 17:08:05.821
175, 140580.36, 135468.95, -88798.94, -73880.45, -9721.20, -36735.09, -36224.73, -35916.21, -30495.06, -53329.88, -41710.34, -41944.34, -71440.80, -91289.35, -38276.71, -40798.50, 0.000, 0.000, 0.000, 17:08:05.821
176, 140580.36, 135468.95, -88798.94, -73880.45, -9721.20, -36735.09, -36224.73, -35916.21, -30503.29, -53336.02, -41731.73, -41958.27, -71442.09, -91291.02, -38279.26, -40787.64, 0.000, 0.000, 0.000, 17:08:05.821
177, 140575.95, 135484.06, -88805.49, -73884.83, -9702.47, -36749.35, -36225.40, -35925.36, -30503.29, -53336.02, -41731.73, -41958.27, -71442.09, -91291.02, -38279.26, -40787.64, 0.000, 0.000, 0.000, 17:08:05.822
178, 140575.95, 135484.06, -88805.49, -73884.83, -9702.47, -36749.35, -36225.40, -35925.36, -30509.19, -53338.10, -41721.09, -41963.03, -71444.53, -91293.93, -38271.86, -40779.66, 0.058, 0.942, -0.272, 17:08:05.822
179, 140576.13, 135494.30, -88808.24, -73889.41, -9712.17, -36747.56, -36226.45, -35926.70, -30509.19, -53338.10, -41721.09, -41963.03, -71444.53, -91293.93, -38271.86, -40779.66, 0.000, 0.000, 0.000, 17:08:05.822
180, 140576.13, 135494.30, -88808.24, -73889.41, -9712.17, -36747.56, -36226.45, -35926.70, -30499.42, -53331.48, -41731.67, -41945.21, -71433.00, -91284.63, -38288.98, -40772.04, 0.000, 0.000, 0.000, 17:08:05.822
181, 140594.81, 135451.39, -88790.71, -73869.80, -9720.01, -36729.84, -36208.26, -35912.88, -30499.42, -53331.48, -41731.67, -41945.21, -71433.00, -91284.63, -38288.98, -40772.04, 0.000, 0.000, 0.000, 17:08:05.823
182, 140594.81, 135451.39, -88790.71, -73869.80, -9720.01, -36729.84, -36208.26, -35912.88, -30492.54, -53323.91, -41712.22, -41940.48, -71424.13, -91275.38, -38276.96, -40755.86, 0.000, 0.000, 0.000, 17:08:05.823
183, 140587.80, 135451.66, -88797.42, -73880.25, -9688.79, -36730.33, -36216.93, -35917.35, -30492.54, -53323.91, -41712.22, -41940.48, -71424.13, -91275.38, -38276.96, -40755.86, 0.000, 0.000, 0.000, 17:08:05.823
184, 140587.80, 135451.66, -88797.42, -73880.25, -9688.79, -36730.33, -36216.93, -35917.35, -30511.25, -53337.88, -41689.82, -41951.72, -71436.66, -91292.45, -38260.22, -40753.00, 0.000, 0.000, 0.000, 17:08:05.824
185, 140581.72, 135445.75, -88805.73, -73894.48, -9718.47, -36731.38, -36225.83, -35917.44, -30511.25, -53337.88, -41689.82, -41951.72, -71436.66, -91292.45, -38260.22, -40753.00, 0.000, 0.000, 0.000, 17:08:05.824
186, 140581.72, 135445.75, -88805.73, -73894.48, -9718.47, -36731.38, -36225.83, -35917.44, -30505.37, -53340.45, -41733.50, -41949.75, -71436.89, -91291.63, -38277.81, -40755.50, 0.000, 0.000, 0.000, 17:08:05.824
187, 140584.59, 135449.67, -88803.86, -73891.47, -9714.07, -36739.41, -36221.71, -35917.78, -30505.37, -53340.45, -41733.50, -41949.75, -71436.89, -91291.63, -38277.81, -40755.50, 0.000, 0.000, 0.000, 17:08:05.825
188, 140584.59, 135449.67, -88803.86, -73891.47, -9714.07, -36739.41, -36221.71, -35917.78, -30499.49, -53335.73, -41725.21, -41963.81, -71436.04, -91290.87, -38275.17, -40753.78, 0.056, 0.944, -0.272, 17:08:05.825
189, 140589.41, 135450.92, -88806.27, -73894.33, -9715.34, -36735.45, -36229.07, -35920.68, -30499.49, -53335.73, -41725.21, -41963.81, -71436.04, -91290.87, -38275.17, -40753.78, 0.000, 0.000, 0.000, 17:08:05.825
190, 140589.41, 135450.92, -88806.27, -73894.33, -9715.34, -36735.45, -36229.07, -35920.68, -30503.65, -53337.81, -41746.64, -41944.30, -71440.58, -91294.42, -38279.93, -40753.06, 0.000, 0.000, 0.000, 17:08:05.825
191, 140586.09, 135450.89, -88808.87, -73895.47, -9721.67, -36742.09, -36226.25, -35918.76, -30503.65, -53337.81, -41746.64, -41944.30, -71440.58, -91294.42, -38279.93, -40753.06, 0.000, 0.000, 0.000, 17:08:05.826
192, 140586.09, 135450.89, -88808.87, -73895.47, -9721.67, -36742.09, -36226.25, -35918.76, -30511.74, -53341.86, -41708.69, -41964.50, -71444.31, -91299.41, -38270.72, -40753.44, 0.000, 0.000, 0.000, 17:08:05.826
193, 140580.55, 135460.02, -88812.73, -73906.24, -9706.94, -36747.61, -36225.79, -35926.09, -30511.74, -53341.86, -41708.69, -41964.50, -71444.31, -91299.41, -38270.72, -40753.44, 0.000, 0.000, 0.000, 17:08:05.827
194, 140580.55, 135460.02, -88812.73, -73906.24, -9706.94, -36747.61, -36225.79, -35926.09, -30515.27, -53340.49, -41726.14, -41965.36, -71446.88, -91300.68, -38268.20, -40753.42, 0.000, 0.000, 0.000, 17:08:05.827
195, 140582.97, 135443.88, -88810.32, -73899.38, -9719.23, -36743.81, -36220.87, -35917.24, -30515.27, -53340.49, -41726.14, -41965.36, -71446.88, -91300.68, -38268.20, -40753.42, 0.000, 0.000, 0.000, 17:08:05.827
196, 140582.97, 135443.88, -88810.32, -73899.38, -9719.23, -36743.81, -36220.87, -35917.24, -30512.68, -53345.21, -41726.79, -41945.53, -71448.66, -91299.99, -38276.18, -40752.55, 0.000, 0.000, 0.000, 17:08:05.827
197, 140578.36, 135456.55, -88816.46, -73911.49, -9704.34, -36748.59, -36231.59, -35920.53, -30512.68, -53345.21, -41726.79, -41945.53, -71448.66, -91299.99, -38276.18, -40752.55, 0.000, 0.000, 0.000, 17:08:05.828
198, 140578.36, 135456.55, -88816.46, -73911.49, -9704.34, -36748.59, -36231.59, -35920.53, -30519.18, -53340.43, -41716.11, -41977.13, -71454.10, -91306.70, -38269.00, -40759.48, 0.056, 0.942, -0.278, 17:08:05.828
199, 140583.17, 135465.61, -88812.75, -73909.13, -9698.98, -36745.95, -36238.03, -35922.49, -30519.18, -53340.43, -41716.11, -41977.13, -71454.10, -91306.70, -38269.00, -40759.48, 0.000, 0.000, 0.000, 17:08:05.828
200, 140583.17, 135465.61, -88812.75, -73909.13, -9698.98, -36745.95, -36238.03, -35922.49, -30509.19, -53324.22, -41738.51, -41948.48, -71435.77, -91289.84, -38289.18, -40746.69, 0.000, 0.000, 0.000, 17:08:05.828
201, 140595.58, 135443.63, -88802.92, -73899.89, -9713.11, -36736.45, -36223.50, -35912.61, -30509.19, -53324.22, -41738.51, -41948.48, -71435.77, -91289.84, -38289.18, -40746.69, 0.000, 0.000, 0.000, 17:08:05.828
202, 140595.58, 135443.63, -88802.92, -73899.89, -9713.11, -36736.45, -36223.50, -35912.61, -30512.12, -53338.48, -41728.67, -41947.85, -71440.40, -91295.23, -38264.82, -40748.39, 0.000, 0.000, 0.000, 17:08:05.829
203, 140595.13, 135454.78, -88803.39, -73904.86, -9697.84, -36752.66, -36218.00, -35917.17, -30512.12, -53338.48, -41728.67, -41947.85, -71440.40, -91295.23, -38264.82, -40748.39, 0.000, 0.000, 0.000, 17:08:05.829
204, 140595.13, 135454.78, -88803.39, -73904.86, -9697.84, -36752.66, -36218.00, -35917.17, -30504.14, -53322.72, -41719.91, -41952.05, -71431.32, -91287.65, -38263.66, -40742.98, 0.000, 0.000, 0.000, 17:08:05.829
205, 140605.77, 135429.50, -88797.17, -73900.52, -9724.68, -36755.50, -36226.36, -35914.40, -30504.14, -53322.72, -41719.91, -41952.05, -71431.32, -91287.65, -38263.66, -40742.98, 0.000, 0.000, 0.000, 17:08:05.829
206, 140605.77, 135429.50, -88797.17, -73900.52, -9724.68, -36755.50, -36226.36, -35914.40, -30491.69, -53309.33, -41722.79, -41951.18, -71419.70, -91277.41, -38275.50, -40740.57, 0.000, 0.000, 0.000, 17:08:05.830
207, 140623.61, 135418.86, -88778.73, -73879.13, -9713.31, -36748.48, -36217.13, -35910.29, -30491.69, -53309.33, -41722.79, -41951.18, -71419.70, -91277.41, -38275.50, -40740.57, 0.000, 0.000, 0.000, 17:08:05.830
208, 140623.61, 135418.86, -88778.73, -73879.13, -9713.31, -36748.48, -36217.13, -35910.29, -30496.79, -53315.43, -41725.03, -41937.50, -71421.80, -91276.12, -38255.23, -40740.21, 0.052, 0.940, -0.278, 17:08:05.830
209, 140605.70, 135440.33, -88802.18, -73902.42, -9717.22, -36758.61, -36228.36, -35916.41, -30496.79, -53315.43, -41725.03, -41937.50, -71421.80, -91276.12, -38255.23, -40740.21, 0.000, 0.000, 0.000, 17:08:05.831
210, 140605.70, 135440.33, -88802.18, -73902.42, -9717.22, -36758.61, -36228.36, -35916.41, -30509.91, -53331.57, -41711.64, -41956.12, -71439.48, -91293.57, -38274.95, -40751.43, 0.000, 0.000, 0.000, 17:08:05.831
211, 140602.81, 135425.92, -88804.55, -73912.19, -9720.53, -36759.54, -36224.04, -35912.39, -30509.91, -53331.57, -41711.64, -41956.12, -71439.48, -91293.57, -38274.95, -40751.43, 0.000, 0.000, 0.000, 17:08:05.831
212, 140602.81, 135425.92, -88804.55, -73912.19, -9720.53, -36759.54, -36224.04, -35912.39, -30512.30, -53332.33, -41722.95, -41926.84, -71436.77, -91290.27, -38288.43, -40750.74, 0.000, 0.000, 0.000, 17:08:05.831
213, 140605.80, 135416.81, -88802.85, -73900.59, -9698.69, -36749.53, -36220.84, -35908.19, -30512.30, -53332.33, -41722.95, -41926.84, -71436.77, -91290.27, -38288.43, -40750.74, 0.000, 0.000, 0.000, 17:08:05.832
214, 140605.80, 135416.81, -88802.85, -73900.59, -9698.69, -36749.53, -36220.84, -35908.19, -30511.92, -53323.62, -41731.00, -41958.27, -71434.01, -91290.80, -38279.51, -40749.15, 0.000, 0.000, 0.000, 17:08:05.832
215, 140607.42, 135405.66, -88804.93, -73915.02, -9701.71, -36750.02, -36230.16, -35905.28, -30511.92, -53323.62, -41731.00, -41958.27, -71434.01, -91290.80, -38279.51, -40749.15, 0.000, 0.000, 0.000, 17:08:05.832
216, 140607.42, 135405.66, -88804.93, -73915.02, -9701.71, -36750.02, -36230.16, -35905.28, -30528.84, -53335.80, -41727.29, -41974.05, -71450.05, -91306.41, -38277.94, -40759.43, 0.000, 0.000, 0.000, 17:08:05.833
217, 140590.25, 135436.03, -88820.89, -73925.06, -9696.95, -36757.29, -36231.68, -35923.05, -30528.84, -53335.80, -41727.29, -41974.05, -71450.05, -91306.41, -38277.94, -40759.43, 0.000, 0.000, 0.000, 17:08:05.833
218, 140590.25, 135436.03, -88820.89, -73925.06, -9696.95, -36757.29, -36231.68, -35923.05, -30527.86, -53344.98, -41747.49, -41961.60, -71452.34, -91303.09, -38278.12, -40763.16, 0.054, 0.942, -0.280, 17:08:05.833
219, 140585.16, 135446.66, -88827.06, -73926.02, -9700.17, -36750.78, -36235.24, -35922.16, -30527.86, -53344.98, -41747.49, -41961.60, -71452.34, -91303.09, -38278.12, -40763.16, 0.000, 0.000, 0.000, 17:08:05.834
220, 140585.16, 135446.66, -88827.06, -73926.02, -9700.17, -36750.78, -36235.24, -35922.16, -30540.53, -53357.28, -41745.64, -41973.71, -71458.95, -91309.98, -38289.88, -40771.48, 0.000, 0.000, 0.000, 17:08:05.834
221, 140584.44, 135444.53, -88827.46, -73928.64, -9718.34, -36752.50, -36246.04, -35923.16, -30540.53, -53357.28, -41745.64, -41973.71, -71458.95, -91309.98, -38289.88, -40771.48, 0.000, 0.000, 0.000, 17:08:05.834
222, 140584.44, 135444.53, -88827.46, -73928.64, -9718.34, -36752.50, -36246.04, -35923.16, -30541.74, -53350.24, -41729.21, -41975.59, -71457.34, -91310.90, -38295.15, -40776.49, 0.000, 0.000, 0.000, 17:08:05.835
223, 140582.34, 135457.33, -88827.08, -73936.17, -9710.25, -36756.19, -36246.93, -35923.30, -30541.74, -53350.24, -41729.21, -41975.59, -71457.34, -91310.90, -38295.15, -40776.49, 0.000, 0.000, 0.000, 17:08:05.835
224, 140582.34, 135457.33, -88827.08, -73936.17, -9710.25, -36756.19, -36246.93, -35923.30, -30545.78, -53354.91, -41755.58, -41970.09, -71465.43, -91317.84, -38298.77, -40781.96, 0.000, 0.000, 0.000, 17:08:05.836
225, 140582.05, 135443.20, -88826.95, -73938.83, -9725.18, -36758.89, -36245.90, -35923.34, -30545.78, -53354.91, -41755.58, -41970.09, -71465.43, -91317.84, -38298.77, -40781.96, 0.000, 0.000, 0.000, 17:08:05.836
226, 140582.05, 135443.20, -88826.95, -73938.83, -9725.18, -36758.89, -36245.90, -35923.34, -30531.50, -53334.99, -41725.21, -41960.62, -71450.91, -91306.23, -38317.93, -40773.58, 0.000, 0.000, 0.000, 17:08:05.836
227, 140599.91, 135429.06, -88807.44, -73917.80, -9700.12, -36745.71, -36224.60, -35911.25, -30531.50, -53334.99, -41725.21, -41960.62, -71450.91, -91306.23, -38317.93, -40773.58, 0.000, 0.000, 0.000, 17:08:05.836
228, 140599.91, 135429.06, -88807.44, -73917.80, -9700.12, -36745.71, -36224.60, -35911.25, -30535.03, -53339.53, -41738.71, -41948.05, -71443.37, -91294.16, -38284.31, -40768.93, 0.058, 0.940, -0.280, 17:08:05.837
229, 140596.69, 135446.25, -88810.79, -73927.37, -9705.13, -36743.85, -36235.46, -35913.02, -30535.03, -53339.53, -41738.71, -41948.05, -71443.37, -91294.16, -38284.31, -40768.93, 0.000, 0.000, 0.000, 17:08:05.837
230, 140596.69, 135446.25, -88810.79, -73927.37, -9705.13, -36743.85, -36235.46, -35913.02, -30545.02, -53339.98, -41730.28, -41962.43, -71447.28, -91301.98, -38283.73, -40774.12, 0.000, 0.000, 0.000, 17:08:05.837
231, 140592.47, 135452.34, -88821.20, -73935.95, -9717.29, -36753.98, -36246.79, -35920.08, -30545.02, -53339.98, -41730.28, -41962.43, -71447.28, -91301.98, -38283.73, -40774.12, 0.000, 0.000, 0.000, 17:08:05.838
232, 140592.47, 135452.34, -88821.20, -73935.95, -9717.29, -36753.98, -36246.79, -35920.08, -30545.89, -53348.65, -41746.17, -41968.93, -71452.83, -91303.01, -38285.21, -40785.00, 0.000, 0.000, 0.000, 17:08:05.838
233, 140597.63, 135457.09, -88819.33, -73924.68, -9706.51, -36761.11, -36240.29, -35919.86, -30545.89, -53348.65, -41746.17, -41968.93, -71452.83, -91303.01, -38285.21, -40785.00, 0.000, 0.000, 0.000, 17:08:05.839
234, 140597.63, 135457.09, -88819.33, -73924.68, -9706.51, -36761.11, -36240.29, -35919.86, -30532.95, -53338.91, -41735.38, -41970.85, -71447.77, -91294.06, -38290.32, -40770.21, 0.000, 0.000, 0.000, 17:08:05.839
235, 140606.28, 135432.86, -88810.27, -73917.59, -9709.08, -36747.99, -36235.26, -35911.05, -30532.95, -53338.91, -41735.38, -41970.85, -71447.77, -91294.06, -38290.32, -40770.21, 0.000, 0.000, 0.000, 17:08:05.839
236, 140606.28, 135432.86, -88810.27, -73917.59, -9709.08, -36747.99, -36235.26, -35911.05, -30523.32, -53330.41, -41718.61, -41953.20, -71439.41, -91282.58, -38305.64, -40774.05, 0.000, 0.000, 0.000, 17:08:05.840
237, 140606.44, 135444.86, -88812.80, -73923.01, -9690.51, -36746.91, -36234.19, -35912.64, -30523.32, -53330.41, -41718.61, -41953.20, -71439.41, -91282.58, -38305.64, -40774.05, 0.000, 0.000, 0.000, 17:08:05.840
238, 140606.44, 135444.86, -88812.80, -73923.01, -9690.51, -36746.91, -36234.19, -35912.64, -30541.62, -53347.20, -41748.14, -41964.08, -71452.06, -91294.18, -38278.93, -40780.87, 0.056, 0.942, -0.280, 17:08:05.840
239, 140598.91, 135465.17, -88817.38, -73930.23, -9705.86, -36757.75, -36242.57, -35920.08, -30541.62, -53347.20, -41748.14, -41964.08, -71452.06, -91294.18, -38278.93, -40780.87, 0.000, 0.000, 0.000, 17:08:05.841
240, 140598.91, 135465.17, -88817.38, -73930.23, -9705.86, -36757.75, -36242.57, -35920.08, -30534.96, -53340.27, -41738.68, -41945.91, -71444.20, -91288.84, -38301.70, -40773.61, 0.000, 0.000, 0.000, 17:08:05.841
241, 140613.70, 135439.14, -88807.77, -73923.41, -9703.79, -36747.16, -36235.26, -35909.37, -30534.96, -53340.27, -41738.68, -41945.91, -71444.20, -91288.84, -38301.70, -40773.61, 0.000, 0.000, 0.000, 17:08:05.841
242, 140613.70, 135439.14, -88807.77, -73923.41, -9703.79, -36747.16, -36235.26, -35909.37, -30537.49, -53332.22, -41721.61, -41961.82, -71446.37, -91285.77, -38286.77, -40765.36, 0.000, 0.000, 0.000, 17:08:06.290
243, 140611.06, 135459.69, -88812.40, -73931.66, -9675.00, -36751.59, -36241.34, -35916.12, -30537.49, -53332.22, -41721.61, -41961.82, -71446.37, -91285.77, -38286.77, -40765.36, 0.000, 0.000, 0.000, 17:08:06.290
244, 140611.06, 135459.69, -88812.40, -73931.66, -9675.00, -36751.59, -36241.34, -35916.12, -30537.51, -53337.92, -41714.90, -41965.58, -71449.43, -91291.54, -38286.44, -40772.53, 0.000, 0.000, 0.000, 17:08:06.290
245, 140615.84, 135445.44, -88807.39, -73932.98, -9704.90, -36739.27, -36236.76, -35907.56, -30537.51, -53337.92, -41714.90, -41965.58, -71449.43, -91291.54, -38286.44, -40772.53, 0.000, 0.000, 0.000, 17:08:06.291
246, 140615.84, 135445.44, -88807.39, -73932.98, -9704.90, -36739.27, -36236.76, -35907.56, -30542.96, -53337.83, -41728.74, -41947.74, -71454.91, -91294.40, -38302.86, -40774.05, 0.000, 0.000, 0.000, 17:08:06.291
247, 140607.52, 135470.31, -88822.07, -73942.32, -9691.83, -36757.29, -36248.70, -35921.93, -30542.96, -53337.83, -41728.74, -41947.74, -71454.91, -91294.40, -38302.86, -40774.05, 0.000, 0.000, 0.000, 17:08:06.292
248, 140607.52, 135470.31, -88822.07, -73942.32, -9691.83, -36757.29, -36248.70, -35921.93, -30554.19, -53345.50, -41752.10, -41978.70, -71467.82, -91301.87, -38306.29, -40784.31, 0.050, 0.942, -0.276, 17:08:06.292
249, 140608.09, 135481.98, -88824.24, -73938.41, -9702.76, -36757.78, -36249.57, -35925.51, -30554.19, -53345.50, -41752.10, -41978.70, -71467.82, -91301.87, -38306.29, -40784.31, 0.000, 0.000, 0.000, 17:08:06.292
250, 140608.09, 135481.98, -88824.24, -73938.41, -9702.76, -36757.78, -36249.57, -35925.51, -30551.71, -53344.27, -41734.28, -41957.55, -71464.36, -91292.44, -38339.19, -40772.78, 0.000, 0.000, 0.000, 17:08:06.292
251, 140614.19, 135461.72, -88818.79, -73925.46, -9715.01, -36750.87, -36249.75, -35919.23, -30551.71, -53344.27, -41734.28, -41957.55, -71464.36, -91292.44, -38339.19, -40772.78, 0.000, 0.000, 0.000, 17:08:06.293
252, 140614.19, 135461.72, -88818.79, -73925.46, -9715.01, -36750.87, -36249.75, -35919.23, -30559.15, -53347.84, -41713.05, -41958.16, -71465.27, -91294.53, -38346.79, -40772.64, 0.000, 0.000, 0.000, 17:08:06.293
253, 140619.33, 135445.73, -88814.09, -73912.59, -9701.26, -36754.05, -36247.18, -35917.44, -30559.15, -53347.84, -41713.05, -41958.16, -71465.27, -91294.53, -38346.79, -40772.64, 0.000, 0.000, 0.000, 17:08:06.293
254, 140619.33, 135445.73, -88814.09, -73912.59, -9701.26, -36754.05, -36247.18, -35917.44, -30551.39, -53329.83, -41716.09, -41968.64, -71453.61, -91285.20, -38358.45, -40761.29, 0.000, 0.000, 0.000, 17:08:06.293
255, 140627.67, 135419.77, -88816.64, -73900.95, -9710.67, -36760.71, -36249.45, -35908.39, -30551.39, -53329.83, -41716.09, -41968.64, -71453.61, -91285.20, -38358.45, -40761.29, 0.000, 0.000, 0.000, 17:08:06.293
0, 140627.67, 135419.77, -88816.64, -73900.95, -9710.67, -36760.71, -36249.45, -35908.39, -30557.27, -53341.48, -41734.57, -41981.20, -71463.33, -91297.58, -38363.59, -40756.30, 0.000, 0.000, 0.000, 17:08:06.294
1, 140625.41, 135427.89, -88823.93, -73894.13, -9691.22, -36770.00, -36257.21, -35922.45, -30557.27, -53341.48, -41734.57, -41981.20, -71463.33, -91297.58, -38363.59, -40756.30, 0.000, 0.000, 0.000, 17:08:06.294
2, 140625.41, 135427.89, -88823.93, -73894.13, -9691.22, -36770.00, -36257.21, -35922.45, -30559.77, -53342.30, -41725.83, -41968.98, -71462.26, -91301.04, -38363.35, -40710.68, 0.050, 0.940, -0.278, 17:08:06.294
3, 140628.19, 135421.53, -88827.23, -73883.22, -9704.64, -36766.92, -36269.13, -35923.21, -30559.77, -53342.30, -41725.83, -41968.98, -71462.26, -91301.04, -38363.35, -40710.68, 0.000, 0.000, 0.000, 17:08:06.294
4, 140628.19, 135421.53, -88827.23, -73883.22, -9704.64, -36766.92, -36269.13, -35923.21, -30548.62, -53337.45, -41711.35, -41966.38, -71452.73, -91292.99, -38387.09, -40701.12, 0.000, 0.000, 0.000, 17:08:06.295
5, 140645.84, 135370.97, -88816.87, -73867.17, -9711.72, -36760.10, -36260.45, -35916.12, -30548.62, -53337.45, -41711.35, -41966.38, -71452.73, -91292.99, -38387.09, -40701.12, 0.000, 0.000, 0.000, 17:08:06.295
6, 140645.84, 135370.97, -88816.87, -73867.17, -9711.72, -36760.10, -36260.45, -35916.12, -30560.91, -53346.44, -41728.92, -41994.59, -71463.77, -91308.68, -38357.56, -40702.32, 0.000, 0.000, 0.000, 17:08:06.295
7, 140636.66, 135396.16, -88828.45, -73871.87, -9679.22, -36774.65, -36271.96, -35924.37, -30560.91, -53346.44, -41728.92, -41994.59, -71463.77, -91308.68, -38357.56, -40702.32, 0.000, 0.000, 0.000, 17:08:06.295
8, 140636.66, 135396.16, -88828.45, -73871.87, -9679.22, -36774.65, -36271.96, -35924.37, -30558.37, -53343.49, -41736.09, -41976.06, -71462.86, -91311.86, -38351.52, -40707.93, 0.000, 0.000, 0.000, 17:08:06.295
9, 140645.59, 135374.45, -88819.02, -73859.13, -9693.50, -36759.03, -36263.29, -35911.94, -30558.37, -53343.49, -41736.09, -41976.06, -71462.86, -91311.86, -38351.52, -40707.93, 0.000, 0.000, 0.000, 17:08:06.296
10, 140645.59, 135374.45, -88819.02, -73859.13, -9693.50, -36759.03, -36263.29, -35911.94, -30562.75, -53343.98, -41722.30, -41976.62, -71460.91, -91315.50, -38312.99, -40741.30, 0.000, 0.000, 0.000, 17:08:06.296
11, 140633.39, 135389.30, -88830.52, -73866.52, -9680.58, -36770.85, -36262.82, -35921.44, -30562.75, -53343.98, -41722.30, -41976.62, -71460.91, -91315.50, -38312.99, -40741.30, 0.000, 0.000, 0.000, 17:08:06.296
12, 140633.39, 135389.30, -88830.52, -73866.52, -9680.58, -36770.85, -36262.82, -35921.44, -30557.72, -53341.57, -41716.22, -41963.81, -71456.27, -91308.73, -38266.54, -40747.14, 0.060, 0.938, -0.274, 17:08:06.296
13, 140641.28, 135383.89, -88823.91, -73854.09, -9683.94, -36757.18, -36259.04, -35915.88, -30557.72, -53341.57, -41716.22, -41963.81, -71456.27, -91308.73, -38266.54, -40747.14, 0.000, 0.000, 0.000, 17:08:06.296
14, 140641.28, 135383.89, -88823.91, -73854.09, -9683.94, -36757.18, -36259.04, -35915.88, -30563.77, -53340.69, -41722.82, -41972.86, -71459.30, -91310.45, -38268.38, -40733.64, 0.000, 0.000, 0.000, 17:08:06.297
15, 140643.52, 135381.47, -88822.59, -73853.47, -9696.37, -36764.73, -36263.54, -35914.22, -30563.77, -53340.69, -41722.82, -41972.86, -71459.30, -91310.45, -38268.38, -40733.64, 0.000, 0.000, 0.000, 17:08:06.297
16, 140643.52, 135381.47, -88822.59, -73853.47, -9696.37, -36764.73, -36263.54, -35914.22, -30553.72, -53330.25, -41722.75, -41973.38, -71449.09, -91300.37, -38259.66, -40738.33, 0.000, 0.000, 0.000, 17:08:06.297
17, 140645.22, 135403.44, -88818.52, -73844.59, -9686.89, -36759.90, -36254.80, -35882.68, -30553.72, -53330.25, -41722.75, -41973.38, -71449.09, -91300.37, -38259.66, -40738.33, 0.000, 0.000, 0.000, 17:08:06.297
18, 140645.22, 135403.44, -88818.52, -73844.59, -9686.89, -36759.90, -36254.80, -35882.68, -30563.80, -53342.26, -41727.02, -41976.98, -71454.28, -91307.86, -38245.84, -40739.18, 0.000, 0.000, 0.000, 17:08:06.297
19, 140644.81, 135402.69, -88821.63, -73852.15, -9713.96, -36783.06, -36267.71, -35876.18, -30563.80, -53342.26, -41727.02, -41976.98, -71454.28, -91307.86, -38245.84, -40739.18, 0.000, 0.000, 0.000, 17:08:06.298
20, 140644.81, 135402.69, -88821.63, -73852.15, -9713.96, -36783.06, -36267.71, -35876.18, -30567.71, -53341.16, -41720.71, -41980.20, -71455.41, -91312.05, -38231.61, -40738.82, 0.000, 0.000, 0.000, 17:08:06.298
21, 140640.69, 135432.83, -88824.98, -73856.76, -9709.31, -36800.45, -36263.31, -35883.24, -30567.71, -53341.16, -41720.71, -41980.20, -71455.41, -91312.05, -38231.61, -40738.82, 0.000, 0.000, 0.000, 17:08:06.298
22, 140640.69, 135432.83, -88824.98, -73856.76, -9709.31, -36800.45, -36263.31, -35883.24, -30565.05, -53345.07, -41715.08, -41975.90, -71456.20, -91312.77, -38201.90, -40750.07, 0.064, 0.936, -0.274, 17:08:06.298
23, 140644.30, 135447.98, -88827.38, -73857.70, -9698.09, -36798.73, -36268.83, -35878.64, -30565.05, -53345.07, -41715.08, -41975.90, -71456.20, -91312.77, -38201.90, -40750.07, 0.000, 0.000, 0.000, 17:08:06.298
24, 140644.30, 135447.98, -88827.38, -73857.70, -9698.09, -36798.73, -36268.83, -35878.64, -30560.91, -53344.87, -41721.43, -41974.25, -71459.98, -91316.10, -38202.35, -40761.73, 0.000, 0.000, 0.000, 17:08:06.298
25, 140649.78, 135457.36, -88830.27, -73860.66, -9711.68, -36798.32, -36265.23, -35879.18, -30560.91, -53344.87, -41721.43, -41974.25, -71459.98, -91316.10, -38202.35, -40761.73, 0.000, 0.000, 0.000, 17:08:06.299
26, 140649.78, 135457.36, -88830.27, -73860.66, -9711.68, -36798.32, -36265.23, -35879.18, -30569.52, -53345.32, -41720.94, -41990.28, -71465.59, -91320.55, -38186.68, -40775.26, 0.000, 0.000, 0.000, 17:08:06.299
27, 140647.81, 135489.92, -88831.93, -73856.35, -9711.72, -36810.37, -36267.27, -35888.83, -30569.52, -53345.32, -41720.94, -41990.28, -71465.59, -91320.55, -38186.68, -40775.26, 0.000, 0.000, 0.000, 17:08:06.299
28, 140647.81, 135489.92, -88831.93, -73856.35, -9711.72, -36810.37, -36267.27, -35888.83, -30565.96, -53347.04, -41722.86, -41980.48, -71463.82, -91318.74, -38193.45, -40787.64, 0.000, 0.000, 0.000, 17:08:06.299
29, 140648.41, 135490.86, -88835.62, -73858.81, -9726.00, -36805.92, -36268.16, -35885.75, -30565.96, -53347.04, -41722.86, -41980.48, -71463.82, -91318.74, -38193.45, -40787.64, 0.000, 0.000, 0.000, 17:08:06.299
30, 140648.41, 135490.86, -88835.62, -73858.81, -9726.00, -36805.92, -36268.16, -35885.75, -30565.14, -53346.55, -41735.85, -41981.56, -71462.01, -91315.92, -38206.37, -40833.84, 0.000, 0.000, 0.000, 17:08:06.299
31, 140647.91, 135521.30, -88837.79, -73849.70, -9689.73, -36803.84, -36257.28, -35882.33, -30565.14, -53346.55, -41735.85, -41981.56, -71462.01, -91315.92, -38206.37, -40833.84, 0.000, 0.000, 0.000, 17:08:06.300
32, 140647.91, 135521.30, -88837.79, -73849.70, -9689.73, -36803.84, -36257.28, -35882.33, -30572.45, -53346.32, -41703.84, -41985.52, -71465.30, -91316.95, -38197.10, -40840.41, 0.058, 0.942, -0.274, 17:08:06.300
33, 140652.61, 135529.53, -88835.46, -73851.08, -9685.77, -36799.29, -36250.24, -35876.83, -30572.45, -53346.32, -41703.84, -41985.52, -71465.30, -91316.95, -38197.10, -40840.41, 0.000, 0.000, 0.000, 17:08:06.300
34, 140652.61, 135529.53, -88835.46, -73851.08, -9685.77, -36799.29, -36250.24, -35876.83, -30572.83, -53342.66, -41727.84, -41994.52, -71464.09, -91316.87, -38217.05, -40834.18, 0.000, 0.000, 0.000, 17:08:06.300
35, 140645.20, 135525.75, -88844.43, -73855.80, -9699.38, -36802.37, -36258.11, -35882.42, -30572.83, -53342.66, -41727.84, -41994.52, -71464.09, -91316.87, -38217.05, -40834.18, 0.000, 0.000, 0.000, 17:08:06.300
36, 140645.20, 135525.75, -88844.43, -73855.80, -9699.38, -36802.37, -36258.11, -35882.42, -30578.97, -53353.97, -41732.09, -41990.50, -71471.04, -91322.14, -38219.36, -40844.28, 0.000, 0.000, 0.000, 17:08:06.300
37, 140650.94, 135522.00, -88837.77, -73849.13, -9687.25, -36802.48, -36250.17, -35881.77, -30578.97, -53353.97, -41732.09, -41990.50, -71471.04, -91322.14, -38219.36, -40844.28, 0.000, 0.000, 0.000, 17:08:06.301
38, 140650.94, 135522.00, -88837.77, -73849.13, -9687.25, -36802.48, -36250.17, -35881.77, -30582.46, -53353.28, -41716.80, -41976.75, -71470.53, -91322.07, -38223.36, -40843.70, 0.000, 0.000, 0.000, 17:08:06.301
39, 140648.91, 135523.58, -88843.13, -73852.15, -9701.80, -36784.73, -36259.31, -35880.18, -30582.46, -53353.28, -41716.80, -41976.75, -71470.53, -91322.07, -38223.36, -40843.70, 0.000, 0.000, 0.000, 17:08:06.301
40, 140648.91, 135523.58, -88843.13, -73852.15, -9701.80, -36784.73, -36259.31, -35880.18, -30583.24, -53350.71, -41711.86, -41994.48, -71470.70, -91322.30, -38241.93, -40846.70, 0.000, 0.000, 0.000, 17:08:06.301
41, 140658.58, 135521.02, -88835.82, -73847.99, -9685.17, -36785.58, -36240.54, -35873.48, -30583.24, -53350.71, -41711.86, -41994.48, -71470.70, -91322.30, -38241.93, -40846.70, 0.000, 0.000, 0.000, 17:08:06.301
42, 140658.58, 135521.02, -88835.82, -73847.99, -9685.17, -36785.58, -36240.54, -35873.48, -30577.16, -53342.55, -41718.39, -41990.19, -71464.25, -91316.23, -38229.57, -40838.67, 0.056, 0.936, -0.278, 17:08:06.301
43, 140664.86, 135527.36, -88835.28, -73843.45, -9694.96, -36787.08, -36247.18, -35875.02, -30577.16, -53342.55, -41718.39, -41990.19, -71464.25, -91316.23, -38229.57, -40838.67, 0.000, 0.000, 0.000, 17:08:06.302
44, 140664.86, 135527.36, -88835.28, -73843.45, -9694.96, -36787.08, -36247.18, -35875.02, -30576.89, -53343.53, -41733.84, -41986.88, -71464.96, -91321.00, -38245.60, -40840.52, 0.000, 0.000, 0.000, 17:08:06.302
45, 140663.64, 135528.09, -88842.59, -73854.32, -9710.02, -36793.47, -36253.21, -35883.09, -30576.89, -53343.53, -41733.84, -41986.88, -71464.96, -91321.00, -38245.60, -40840.52, 0.000, 0.000, 0.000, 17:08:06.302
46, 140663.64, 135528.09, -88842.59, -73854.32, -9710.02, -36793.47, -36253.21, -35883.09, -30586.33, -53356.27, -41742.24, -42002.64, -71476.02, -91328.76, -38239.12, -40851.07, 0.000, 0.000, 0.000, 17:08:06.302
47, 140653.64, 135547.17, -88848.43, -73854.99, -9701.26, -36808.18, -36262.11, -35897.19, -30586.33, -53356.27, -41742.24, -42002.64, -71476.02, -91328.76, -38239.12, -40851.07, 0.000, 0.000, 0.000, 17:08:06.303
48, 140653.64, 135547.17, -88848.43, -73854.99, -9701.26, -36808.18, -36262.11, -35897.19, -30584.92, -53360.72, -41727.33, -41972.93, -71474.53, -91328.35, -38244.26, -40847.72, 0.000, 0.000, 0.000, 17:08:06.303
49, 140658.55, 135529.55, -88846.20, -73857.90, -9716.93, -36802.53, -36258.86, -35890.42, -30584.92, -53360.72, -41727.33, -41972.93, -71474.53, -91328.35, -38244.26, -40847.72, 0.000, 0.000, 0.000, 17:08:06.303
50, 140658.55, 135529.55, -88846.20, -73857.90, -9716.93, -36802.53, -36258.86, -35890.42, -30581.30, -53349.45, -41732.89, -42019.63, -71469.70, -91324.24, -38237.13, -40785.59, 0.000, 0.000, 0.000, 17:08:06.303
51, 140665.56, 135538.25, -88843.04, -73856.22, -9702.09, -36802.70, -36253.68, -35892.30, -30581.30, -53349.45, -41732.89, -42019.63, -71469.70, -91324.24, -38237.13, -40785.59, 0.000, 0.000, 0.000, 17:08:06.304
52, 140665.56, 135538.25, -88843.04, -73856.22, -9702.09, -36802.70, -36253.68, -35892.30, -30566.46, -53341.41, -41729.68, -42007.06, -71461.77, -91313.40, -38230.54, -40765.11, 0.054, 0.940, -0.280, 17:08:06.304
53, 140670.28, 135526.22, -88834.55, -73850.92, -9695.29, -36775.30, -36240.74, -35885.95, -30566.46, -53341.41, -41729.68, -42007.06, -71461.77, -91313.40, -38230.54, -40765.11, 0.000, 0.000, 0.000, 17:08:06.304
54, 140670.28, 135526.22, -88834.55, -73850.92, -9695.29, -36775.30, -36240.74, -35885.95, -30578.24, -53352.96, -41702.79, -41986.25, -71468.12, -91315.92, -38234.67, -40768.02, 0.000, 0.000, 0.000, 17:08:06.305
55, 140661.20, 135531.81, -88847.84, -73856.95, -9699.11, -36773.34, -36252.07, -35890.57, -30578.24, -53352.96, -41702.79, -41986.25, -71468.12, -91315.92, -38234.67, -40768.02, 0.000, 0.000, 0.000, 17:08:06.305
56, 140661.20, 135531.81, -88847.84, -73856.95, -9699.11, -36773.34, -36252.07, -35890.57, -30586.86, -53360.77, -41731.04, -41986.16, -71468.92, -91311.19, -38230.27, -40779.50, 0.000, 0.000, 0.000, 17:08:06.305
57, 140665.16, 135536.59, -88838.50, -73848.46, -9689.59, -36764.80, -36243.42, -35888.25, -30586.86, -53360.77, -41731.04, -41986.16, -71468.92, -91311.19, -38230.27, -40779.50, 0.000, 0.000, 0.000, 17:08:06.306
58, 140665.16, 135536.59, -88838.50, -73848.46, -9689.59, -36764.80, -36243.42, -35888.25, -30583.80, -53343.15, -41729.66, -41987.26, -71460.60, -91305.27, -38241.09, -40772.46, 0.000, 0.000, 0.000, 17:08:06.306
59, 140672.16, 135523.55, -88833.25, -73849.76, -9711.21, -36762.16, -36243.49, -35876.07, -30583.80, -53343.15, -41729.66, -41987.26, -71460.60, -91305.27, -38241.09, -40772.46, 0.000, 0.000, 0.000, 17:08:06.306
60, 140672.16, 135523.55, -88833.25, -73849.76, -9711.21, -36762.16, -36243.49, -35876.07, -30587.69, -53346.68, -41729.57, -42005.07, -71463.33, -91309.16, -38250.05, -40778.41, 0.000, 0.000, 0.000, 17:08:06.307
61, 140667.39, 135542.20, -88837.25, -73856.11, -9700.66, -36797.88, -36248.74, -35882.02, -30587.69, -53346.68, -41729.57, -42005.07, -71463.33, -91309.16, -38250.05, -40778.41, 0.000, 0.000, 0.000, 17:08:06.307
62, 140667.39, 135542.20, -88837.25, -73856.11, -9700.66, -36797.88, -36248.74, -35882.02, -30581.83, -53335.15, -41724.40, -41994.23, -71453.95, -91305.22, -38256.86, -40781.94, 0.058, 0.948, -0.278, 17:08:06.308
63, 140675.34, 135522.48, -88828.76, -73855.46, -9702.45, -36787.64, -36237.00, -35865.52, -30581.83, -53335.15, -41724.40, -41994.23, -71453.95, -91305.22, -38256.86, -40781.94, 0.000, 0.000, 0.000, 17:08:06.308
64, 140675.34, 135522.48, -88828.76, -73855.46, -9702.45, -36787.64, -36237.00, -35865.52, -30586.64, -53349.66, -41717.96, -41977.78, -71460.29, -91315.66, -38258.21, -40787.13, 0.000, 0.000, 0.000, 17:08:06.308
65, 140679.86, 135506.73, -88833.56, -73860.87, -9707.76, -36786.95, -36240.67, -35865.38, -30586.64, -53349.66, -41717.96, -41977.78, -71460.29, -91315.66, -38258.21, -40787.13, 0.000, 0.000, 0.000, 17:08:06.308
66, 140679.86, 135506.73, -88833.56, -73860.87, -9707.76, -36786.95, -36240.67, -35865.38, -30590.04, -53350.64, -41711.28, -41993.27, -71462.99, -91319.97, -38241.17, -40812.96, 0.000, 0.000, 0.000, 17:08:06.309
67, 140676.28, 135535.13, -88846.04, -73878.57, -9688.56, -36803.15, -36253.43, -35880.96, -30590.04, -53350.64, -41711.28, -41993.27, -71462.99, -91319.97, -38241.17, -40812.96, 0.000, 0.000, 0.000, 17:08:06.309
68, 140676.28, 135535.13, -88846.04, -73878.57, -9688.56, -36803.15, -36253.43, -35880.96, -30594.24, -53357.64, -41729.43, -42006.50, -71468.56, -91327.66, -38238.83, -40865.16, 0.000, 0.000, 0.000, 17:08:06.309
69, 140685.67, 135523.61, -88839.55, -73866.12, -9717.69, -36795.20, -36249.25, -35873.68, -30594.24, -53357.64, -41729.43, -42006.50, -71468.56, -91327.66, -38238.83, -40865.16, 0.000, 0.000, 0.000, 17:08:06.309
70, 140685.67, 135523.61, -88839.55, -73866.12, -9717.69, -36795.20, -36249.25, -35873.68, -30578.53, -53337.95, -41730.79, -41984.58, -71448.76, -91304.75, -38257.58, -40973.27, 0.000, 0.000, 0.000, 17:08:06.310
71, 140697.55, 135512.77, -88828.34, -73854.27, -9690.82, -36793.21, -36244.36, -35872.29, -30578.53, -53337.95, -41730.79, -41984.58, -71448.76, -91304.75, -38257.58, -40973.27, 0.000, 0.000, 0.000, 17:08:06.310
72, 140697.55, 135512.77, -88828.34, -73854.27, -9690.82, -36793.21, -36244.36, -35872.29, -30584.79, -53342.41, -41724.83, -41989.49, -71453.00, -91309.24, -38241.13, -41096.56, 0.060, 0.942, -0.274, 17:08:06.310
73, 140693.97, 135524.02, -88832.55, -73857.07, -9696.95, -36797.18, -36249.48, -35871.87, -30584.79, -53342.41, -41724.83, -41989.49, -71453.00, -91309.24, -38241.13, -41096.56, 0.000, 0.000, 0.000, 17:08:06.310
74, 140693.97, 135524.02, -88832.55, -73857.07, -9696.95, -36797.18, -36249.48, -35871.87, -30590.82, -53345.72, -41729.39, -41999.98, -71458.23, -91312.77, -38235.61, -41109.71, 0.000, 0.000, 0.000, 17:08:06.311
75, 140682.55, 135545.58, -88845.01, -73868.87, -9704.01, -36800.89, -36258.33, -35876.05, -30590.82, -53345.72, -41729.39, -41999.98, -71458.23, -91312.77, -38235.61, -41109.71, 0.000, 0.000, 0.000, 17:08:06.311
76, 140682.55, 135545.58, -88845.01, -73868.87, -9704.01, -36800.89, -36258.33, -35876.05, -30594.35, -53351.71, -41729.68, -41995.33, -71462.64, -91318.25, -38239.39, -41115.03, 0.000, 0.000, 0.000, 17:08:06.311
77, 140687.63, 135553.02, -88835.40, -73859.08, -9685.44, -36779.32, -36246.39, -35870.52, -30594.35, -53351.71, -41729.68, -41995.33, -71462.64, -91318.25, -38239.39, -41115.03, 0.000, 0.000, 0.000, 17:08:06.311
78, 140687.63, 135553.02, -88835.40, -73859.08, -9685.44, -36779.32, -36246.39, -35870.52, -30576.40, -53341.50, -41721.05, -41966.70, -71443.33, -91298.29, -38245.93, -41113.17, 0.000, 0.000, 0.000, 17:08:06.312
79, 140701.05, 135532.09, -88827.57, -73854.25, -9698.40, -36763.77, -36234.93, -35861.68, -30576.40, -53341.50, -41721.05, -41966.70, -71443.33, -91298.29, -38245.93, -41113.17, 0.000, 0.000, 0.000, 17:08:06.312
80, 140701.05, 135532.09, -88827.57, -73854.25, -9698.40, -36763.77, -36234.93, -35861.68, -30591.58, -53348.67, -41723.78, -42006.68, -71458.32, -91314.90, -38228.23, -41136.89, 0.000, 0.000, 0.000, 17:08:06.312
81, 140685.94, 135581.39, -88848.36, -73876.36, -9686.02, -36788.18, -36256.36, -35882.98, -30591.58, -53348.67, -41723.78, -42006.68, -71458.32, -91314.90, -38228.23, -41136.89, 0.000, 0.000, 0.000, 17:08:06.312
82, 140685.94, 135581.39, -88848.36, -73876.36, -9686.02, -36788.18, -36256.36, -35882.98, -30587.80, -53345.79, -41721.61, -41997.68, -71457.66, -91314.30, -38228.21, -41137.67, 0.056, 0.946, -0.274, 17:08:06.313
83, 140701.83, 135565.41, -88828.84, -73860.45, -9687.13, -36771.23, -36238.93, -35870.82, -30587.80, -53345.79, -41721.61, -41997.68, -71457.66, -91314.30, -38228.21, -41137.67, 0.000, 0.000, 0.000, 17:08:06.313
84, 140701.83, 135565.41, -88828.84, -73860.45, -9687.13, -36771.23, -36238.93, -35870.82, -30589.95, -53338.50, -41689.87, -41991.59, -71451.69, -91313.35, -38233.30, -41101.13, 0.000, 0.000, 0.000, 17:08:06.314
85, 140693.92, 135578.06, -88840.94, -73879.29, -9686.11, -36771.64, -36247.53, -35873.79, -30589.95, -53338.50, -41689.87, -41991.59, -71451.69, -91313.35, -38233.30, -41101.13, 0.000, 0.000, 0.000, 17:08:06.314
86, 140693.92, 135578.06, -88840.94, -73879.29, -9686.11, -36771.64, -36247.53, -35873.79, -30595.65, -53350.19, -41756.01, -41997.96, -71461.97, -91320.30, -38227.20, -41084.92, 0.000, 0.000, 0.000, 17:08:06.314
87, 140693.55, 135598.63, -88841.25, -73872.76, -9682.71, -36775.68, -36250.44, -35877.72, -30595.65, -53350.19, -41756.01, -41997.96, -71461.97, -91320.30, -38227.20, -41084.92, 0.000, 0.000, 0.000, 17:08:06.314
88, 140693.55, 135598.63, -88841.25, -73872.76, -9682.71, -36775.68, -36250.44, -35877.72, -30592.52, -53342.82, -41734.41, -41993.25, -71456.16, -91315.84, -38231.20, -41075.35, 0.000, 0.000, 0.000, 17:08:06.315
89, 140697.14, 135590.80, -88836.89, -73878.48, -9686.96, -36767.99, -36249.61, -35867.33, -30592.52, -53342.82, -41734.41, -41993.25, -71456.16, -91315.84, -38231.20, -41075.35, 0.000, 0.000, 0.000, 17:08:06.315
90, 140697.14, 135590.80, -88836.89, -73878.48, -9686.96, -36767.99, -36249.61, -35867.33, -30607.12, -53351.78, -41725.99, -42002.19, -71460.07, -91320.04, -38231.90, -41078.70, 0.000, 0.000, 0.000, 17:08:06.315
91, 140698.97, 135606.39, -88833.48, -73866.39, -9674.86, -36768.46, -36242.28, -35869.32, -30607.12, -53351.78, -41725.99, -42002.19, -71460.07, -91320.04, -38231.90, -41078.70, 0.000, 0.000, 0.000, 17:08:06.316
92, 140698.97, 135606.39, -88833.48, -73866.39, -9674.86, -36768.46, -36242.28, -35869.32, -30592.43, -53344.38, -41723.87, -41989.18, -71449.77, -91305.09, -38224.12, -41069.30, 0.062, 0.946, -0.276, 17:08:06.316
93, 140701.17, 135613.45, -88836.91, -73867.98, -9668.81, -36773.76, -36241.21, -35870.23, -30592.43, -53344.38, -41723.87, -41989.18, -71449.77, -91305.09, -38224.12, -41069.30, 0.000, 0.000, 0.000, 17:08:06.316
94, 140701.17, 135613.45, -88836.91, -73867.98, -9668.81, -36773.76, -36241.21, -35870.23, -30605.17, -53358.33, -41723.33, -41998.64, -71457.90, -91314.56, -38225.97, -41071.02, 0.000, 0.000, 0.000, 17:08:06.316
95, 140690.84, 135630.06, -88848.45, -73884.56, -9679.31, -36787.66, -36254.37, -35877.90, -30605.17, -53358.33, -41723.33, -41998.64, -71457.90, -91314.56, -38225.97, -41071.02, 0.000, 0.000, 0.000, 17:08:06.317
96, 140690.84, 135630.06, -88848.45, -73884.56, -9679.31, -36787.66, -36254.37, -35877.90, -30605.46, -53347.31, -41695.79, -42014.80, -71455.51, -91312.30, -38240.75, -41091.80, 0.000, 0.000, 0.000, 17:08:06.317
97, 140697.95, 135641.80, -88841.43, -73878.01, -9658.43, -36799.35, -36250.84, -35872.29, -30605.46, -53347.31, -41695.79, -42014.80, -71455.51, -91312.30, -38240.75, -41091.80, 0.000, 0.000, 0.000, 17:08:06.318
98, 140697.95, 135641.80, -88841.43, -73878.01, -9658.43, -36799.35, -36250.84, -35872.29, -30605.95, -53348.40, -41741.97, -41983.53, -71450.48, -91308.80, -38247.77, -41102.98, 0.000, 0.000, 0.000, 17:08:06.318
99, 140706.02, 135622.83, -88831.84, -73865.23, -9676.70, -36786.19, -36249.14, -35869.50, -30605.95, -53348.40, -41741.97, -41983.53, -71450.48, -91308.80, -38247.77, -41102.98, 0.000, 0.000, 0.000, 17:08:06.318
100, 140706.02, 135622.83, -88831.84, -73865.23, -9676.70, -36786.19, -36249.14, -35869.50, -30598.08, -53339.22, -41728.85, -41997.05, -71443.23, -91300.66, -38257.80, -41098.26, 0.000, 0.000, 0.000, 17:08:06.319
101, 140695.16, 135646.94, -88846.20, -73884.56, -9655.28, -36794.79, -36255.11, -35877.10, -30598.08, -53339.22, -41728.85, -41997.05, -71443.23, -91300.66, -38257.80, -41098.26, 0.000, 0.000, 0.000, 17:08:06.319
102, 140695.16, 135646.94, -88846.20, -73884.56, -9655.28, -36794.79, -36255.11, -35877.10, -30616.37, -53356.56, -41717.94, -42017.61, -71462.28, -91322.25, -38246.83, -41113.80, 0.066, 0.942, -0.280, 17:08:06.319
103, 140690.72, 135659.42, -88847.11, -73891.80, -9653.00, -36790.41, -36254.46, -35874.37, -30616.37, -53356.56, -41717.94, -42017.61, -71462.28, -91322.25, -38246.83, -41113.80, 0.000, 0.000, 0.000, 17:08:06.320
104, 140690.72, 135659.42, -88847.11, -73891.80, -9653.00, -36790.41, -36254.46, -35874.37, -30615.45, -53359.38, -41721.77, -42009.32, -71462.59, -91324.11, -38257.65, -41108.07, 0.000, 0.000, 0.000, 17:08:06.320
105, 140693.59, 135654.77, -88844.85, -73885.97, -9666.26, -36784.33, -36256.59, -35872.52, -30615.45, -53359.38, -41721.77, -42009.32, -71462.59, -91324.11, -38257.65, -41108.07, 0.000, 0.000, 0.000, 17:08:06.320
106, 140693.59, 135654.77, -88844.85, -73885.97, -9666.26, -36784.33, -36256.59, -35872.52, -30604.34, -53343.82, -41731.38, -42018.17, -71453.56, -91309.96, -38255.16, -41095.45, 0.000, 0.000, 0.000, 17:08:06.770
107, 140703.27, 135658.31, -88837.48, -73880.85, -9625.89, -36780.91, -36245.54, -35871.24, -30604.34, -53343.82, -41731.38, -42018.17, -71453.56, -91309.96, -38255.16, -41095.45, 0.000, 0.000, 0.000, 17:08:06.771
108, 140703.27, 135658.31, -88837.48, -73880.85, -9625.89, -36780.91, -36245.54, -35871.24, -30598.98, -53346.75, -41712.27, -42002.10, -71449.43, -91307.01, -38246.96, -41055.62, 0.000, 0.000, 0.000, 17:08:06.771
109, 140703.38, 135637.41, -88838.34, -73888.30, -9640.58, -36769.71, -36243.38, -35863.53, -30598.98, -53346.75, -41712.27, -42002.10, -71449.43, -91307.01, -38246.96, -41055.62, 0.000, 0.000, 0.000, 17:08:06.771
110, 140703.38, 135637.41, -88838.34, -73888.30, -9640.58, -36769.71, -36243.38, -35863.53, -30607.23, -53351.24, -41732.16, -42022.06, -71457.67, -91314.30, -38252.04, -41053.71, 0.000, 0.000, 0.000, 17:08:06.772
111, 140698.14, 135666.55, -88846.82, -73891.38, -9625.89, -36781.71, -36251.58, -35874.57, -30607.23, -53351.24, -41732.16, -42022.06, -71457.67, -91314.30, -38252.04, -41053.71, 0.000, 0.000, 0.000, 17:08:06.772
112, 140698.14, 135666.55, -88846.82, -73891.38, -9625.89, -36781.71, -36251.58, -35874.57, -30617.33, -53356.77, -41722.14, -42013.57, -71459.04, -91314.61, -38252.26, -41053.52, 0.058, 0.946, -0.278, 17:08:06.772
113, 140701.30, 135658.66, -88840.88, -73892.02, -9629.76, -36777.20, -36248.23, -35873.07, -30617.33, -53356.77, -41722.14, -42013.57, -71459.04, -91314.61, -38252.26, -41053.52, 0.000, 0.000, 0.000, 17:08:06.772
114, 140701.30, 135658.66, -88840.88, -73892.02, -9629.76, -36777.20, -36248.23, -35873.07, -30618.45, -53348.14, -41727.15, -42016.72, -71457.52, -91314.36, -38264.62, -41027.16, 0.000, 0.000, 0.000, 17:08:06.773
115, 140699.20, 135658.16, -88844.94, -73894.51, -9634.67, -36778.23, -36249.90, -35870.48, -30618.45, -53348.14, -41727.15, -42016.72, -71457.52, -91314.36, -38264.62, -41027.16, 0.000, 0.000, 0.000, 17:08:06.773
116, 140699.20, 135658.16, -88844.94, -73894.51, -9634.67, -36778.23, -36249.90, -35870.48, -30627.70, -53357.34, -41750.55, -42028.25, -71467.15, -91323.08, -38259.32, -40942.11, 0.000, 0.000, 0.000, 17:08:06.774
117, 140691.91, 135683.13, -88856.45, -73904.14, -9626.27, -36780.51, -36260.27, -35879.42, -30627.70, -53357.34, -41750.55, -42028.25, -71467.15, -91323.08, -38259.32, -40942.11, 0.000, 0.000, 0.000, 17:08:06.774
118, 140691.91, 135683.13, -88856.45, -73904.14, -9626.27, -36780.51, -36260.27, -35879.42, -30616.79, -53348.74, -41730.95, -42017.28, -71460.73, -91316.82, -38273.36, -40911.52, 0.000, 0.000, 0.000, 17:08:06.774
119, 140709.86, 135656.80, -88844.59, -73897.99, -9651.19, -36750.04, -36246.79, -35862.32, -30616.79, -53348.74, -41730.95, -42017.28, -71460.73, -91316.82, -38273.36, -40911.52, 0.000, 0.000, 0.000, 17:08:06.774
120, 140709.86, 135656.80, -88844.59, -73897.99, -9651.19, -36750.04, -36246.79, -35862.32, -30618.38, -53345.12, -41717.00, -42030.44, -71456.67, -91314.72, -38274.86, -40908.03, 0.000, 0.000, 0.000, 17:08:06.774
121, 140714.98, 135673.92, -88844.56, -73899.45, -9636.42, -36782.12, -36245.61, -35877.72, -30618.38, -53345.12, -41717.00, -42030.44, -71456.67, -91314.72, -38274.86, -40908.03, 0.000, 0.000, 0.000, 17:08:06.775
122, 140714.98, 135673.92, -88844.56, -73899.45, -9636.42, -36782.12, -36245.61, -35877.72, -30615.94, -53344.52, -41695.10, -42024.36, -71457.34, -91314.38, -38259.79, -40913.14, 0.058, 0.946, -0.274, 17:08:06.775
123, 140704.38, 135690.13, -88854.69, -73907.47, -9627.12, -36802.66, -36255.24, -35884.68, -30615.94, -53344.52, -41695.10, -42024.36, -71457.34, -91314.38, -38259.79, -40913.14, 0.000, 0.000, 0.000, 17:08:06.775
124, 140704.38, 135690.13, -88854.69, -73907.47, -9627.12, -36802.66, -36255.24, -35884.68, -30620.35, -53354.93, -41747.65, -42030.24, -71464.83, -91320.59, -38275.77, -40918.11, 0.000, 0.000, 0.000, 17:08:06.775
125, 140711.33, 135691.53, -88849.08, -73903.76, -9641.22, -36796.20, -36256.81, -35880.85, -30620.35, -53354.93, -41747.65, -42030.24, -71464.83, -91320.59, -38275.77, -40918.11, 0.000, 0.000, 0.000, 17:08:06.775
126, 140711.33, 135691.53, -88849.08, -73903.76, -9641.22, -36796.20, -36256.81, -35880.85, -30607.85, -53348.32, -41730.75, -42016.63, -71456.16, -91307.66, -38268.35, -40904.38, 0.000, 0.000, 0.000, 17:08:06.776
127, 140717.50, 135692.63, -88841.12, -73888.90, -9632.62, -36785.81, -36242.57, -35873.25, -30607.85, -53348.32, -41730.75, -42016.63, -71456.16, -91307.66, -38268.35, -40904.38, 0.000, 0.000, 0.000, 17:08:06.776
128, 140717.50, 135692.63, -88841.12, -73888.90, -9632.62, -36785.81, -36242.57, -35873.25, -30614.27, -53351.27, -41726.91, -42015.98, -71458.30, -91310.94, -38253.22, -40896.05, 0.000, 0.000, 0.000, 17:08:06.776
129, 140710.39, 135707.11, -88853.41, -73907.02, -9654.10, -36786.88, -36256.50, -35873.90, -30614.27, -53351.27, -41726.91, -42015.98, -71458.30, -91310.94, -38253.22, -40896.05, 0.000, 0.000, 0.000, 17:08:06.776
130, 140710.39, 135707.11, -88853.41, -73907.02, -9654.10, -36786.88, -36256.50, -35873.90, -30618.89, -53347.38, -41705.22, -42041.51, -71462.34, -91316.75, -38265.18, -40902.02, 0.000, 0.000, 0.000, 17:08:06.776
131, 140715.63, 135705.53, -88845.32, -73899.27, -9646.39, -36792.69, -36253.37, -35879.31, -30618.89, -53347.38, -41705.22, -42041.51, -71462.34, -91316.75, -38265.18, -40902.02, 0.000, 0.000, 0.000, 17:08:06.777
132, 140715.63, 135705.53, -88845.32, -73899.27, -9646.39, -36792.69, -36253.37, -35879.31, -30617.49, -53353.99, -41733.84, -42017.61, -71464.73, -91318.01, -38261.91, -40895.84, 0.060, 0.938, -0.278, 17:08:06.777
133, 140700.58, 135722.36, -88855.13, -73908.45, -9629.49, -36800.76, -36259.80, -35877.41, -30617.49, -53353.99, -41733.84, -42017.61, -71464.73, -91318.01, -38261.91, -40895.84, 0.000, 0.000, 0.000, 17:08:06.777
134, 140700.58, 135722.36, -88855.13, -73908.45, -9629.49, -36800.76, -36259.80, -35877.41, -30614.96, -53343.80, -41734.39, -42032.77, -71459.48, -91313.51, -38276.27, -40889.52, 0.000, 0.000, 0.000, 17:08:06.777
135, 140709.41, 135697.70, -88845.43, -73902.48, -9644.35, -36784.38, -36244.34, -35863.06, -30614.96, -53343.80, -41734.39, -42032.77, -71459.48, -91313.51, -38276.27, -40889.52, 0.000, 0.000, 0.000, 17:08:06.777
136, 140709.41, 135697.70, -88845.43, -73902.48, -9644.35, -36784.38, -36244.34, -35863.06, -30622.74, -53353.70, -41735.71, -42034.49, -71465.77, -91320.59, -38258.00, -40880.49, 0.000, 0.000, 0.000, 17:08:06.777
137, 140703.52, 135720.95, -88851.35, -73911.65, -9626.14, -36793.36, -36251.24, -35874.37, -30622.74, -53353.70, -41735.71, -42034.49, -71465.77, -91320.59, -38258.00, -40880.49, 0.000, 0.000, 0.000, 17:08:06.778
138, 140703.52, 135720.95, -88851.35, -73911.65, -9626.14, -36793.36, -36251.24, -35874.37, -30619.50, -53353.01, -41709.25, -42017.43, -71460.89, -91318.25, -38261.94, -40825.64, 0.000, 0.000, 0.000, 17:08:06.778
139, 140715.73, 135708.55, -88847.91, -73913.73, -9636.17, -36784.91, -36246.10, -35867.38, -30619.50, -53353.01, -41709.25, -42017.43, -71460.89, -91318.25, -38261.94, -40825.64, 0.000, 0.000, 0.000, 17:08:06.778
140, 140715.73, 135708.55, -88847.91, -73913.73, -9636.17, -36784.91, -36246.10, -35867.38, -30622.63, -53351.09, -41715.28, -42033.10, -71462.99, -91318.77, -38273.43, -40797.65, 0.000, 0.000, 0.000, 17:08:06.778
141, 140705.67, 135735.48, -88859.67, -73920.66, -9621.46, -36802.64, -36256.85, -35877.95, -30622.63, -53351.09, -41715.28, -42033.10, -71462.99, -91318.77, -38273.43, -40797.65, 0.000, 0.000, 0.000, 17:08:06.778
142, 140705.67, 135735.48, -88859.67, -73920.66, -9621.46, -36802.64, -36256.85, -35877.95, -30632.69, -53364.90, -41755.54, -42052.93, -71474.93, -91327.48, -38265.11, -40805.63, 0.064, 0.944, -0.278, 17:08:06.779
143, 140706.75, 135747.73, -88857.50, -73914.63, -9628.04, -36801.48, -36255.82, -35878.64, -30632.69, -53364.90, -41755.54, -42052.93, -71474.93, -91327.48, -38265.11, -40805.63, 0.000, 0.000, 0.000, 17:08:06.779
144, 140706.75, 135747.73, -88857.50, -73914.63, -9628.04, -36801.48, -36255.82, -35878.64, -30625.40, -53356.83, -41734.73, -42029.93, -71466.03, -91320.30, -38293.45, -40798.32, 0.000, 0.000, 0.000, 17:08:06.779
145, 140711.77, 135731.56, -88856.97, -73920.75, -9647.91, -36801.88, -36260.92, -35877.70, -30625.40, -53356.83, -41734.73, -42029.93, -71466.03, -91320.30, -38293.45, -40798.32, 0.000, 0.000, 0.000, 17:08:06.779
146, 140711.77, 135731.56, -88856.97, -73920.75, -9647.91, -36801.88, -36260.92, -35877.70, -30622.02, -53355.78, -41720.20, -42038.27, -71465.32, -91322.30, -38298.89, -40799.53, 0.000, 0.000, 0.000, 17:08:06.779
147, 140712.92, 135731.88, -88857.77, -73921.02, -9613.80, -36798.37, -36261.32, -35879.51, -30622.02, -53355.78, -41720.20, -42038.27, -71465.32, -91322.30, -38298.89, -40799.53, 0.000, 0.000, 0.000, 17:08:06.780
148, 140712.92, 135731.88, -88857.77, -73921.02, -9613.80, -36798.37, -36261.32, -35879.51, -30630.05, -53354.33, -41738.24, -42035.38, -71469.79, -91328.15, -38289.01, -40804.63, 0.000, 0.000, 0.000, 17:08:06.780
149, 140712.97, 135728.28, -88858.48, -73924.95, -9650.12, -36788.58, -36265.79, -35878.32, -30630.05, -53354.33, -41738.24, -42035.38, -71469.79, -91328.15, -38289.01, -40804.63, 0.000, 0.000, 0.000, 17:08:06.780
150, 140712.97, 135728.28, -88858.48, -73924.95, -9650.12, -36788.58, -36265.79, -35878.32, -30624.19, -53344.25, -41725.30, -42033.71, -71459.55, -91318.59, -38301.28, -40800.11, 0.000, 0.000, 0.000, 17:08:06.780
151, 140716.98, 135729.27, -88850.93, -73912.73, -9631.48, -36790.43, -36255.67, -35874.41, -30624.19, -53344.25, -41725.30, -42033.71, -71459.55, -91318.59, -38301.28, -40800.11, 0.000, 0.000, 0.000, 17:08:06.780
152, 140716.98, 135729.27, -88850.93, -73912.73, -9631.48, -36790.43, -36255.67, -35874.41, -30635.30, -53351.91, -41712.55, -42030.51, -71462.03, -91322.56, -38285.96, -40796.61, 0.064, 0.944, -0.272, 17:08:06.780
153, 140707.22, 135745.36, -88856.25, -73928.59, -9628.62, -36800.58, -36255.42, -35875.55, -30635.30, -53351.91, -41712.55, -42030.51, -71462.03, -91322.56, -38285.96, -40796.61, 0.000, 0.000, 0.000, 17:08:06.781
154, 140707.22, 135745.36, -88856.25, -73928.59, -9628.62, -36800.58, -36255.42, -35875.55, -30640.96, -53360.54, -41731.55, -42037.33, -71465.01, -91326.81, -38293.03, -40792.18, 0.000, 0.000, 0.000, 17:08:06.781
155, 140709.25, 135734.67, -88854.91, -73918.42, -9632.57, -36796.65, -36248.18, -35868.20, -30640.96, -53360.54, -41731.55, -42037.33, -71465.01, -91326.81, -38293.03, -40792.18, 0.000, 0.000, 0.000, 17:08:06.781
156, 140709.25, 135734.67, -88854.91, -73918.42, -9632.57, -36796.65, -36248.18, -35868.20, -30638.43, -53354.93, -41748.12, -42034.46, -71465.09, -91325.83, -38287.09, -40787.62, 0.000, 0.000, 0.000, 17:08:06.781
157, 140705.72, 135754.19, -88858.71, -73927.19, -9614.38, -36807.69, -36253.79, -35876.16, -30638.43, -53354.93, -41748.12, -42034.46, -71465.09, -91325.83, -38287.09, -40787.62, 0.000, 0.000, 0.000, 17:08:06.781
158, 140705.72, 135754.19, -88858.71, -73927.19, -9614.38, -36807.69, -36253.79, -35876.16, -30634.00, -53353.05, -41734.19, -42022.86, -71462.19, -91323.84, -38300.00, -40796.83, 0.000, 0.000, 0.000, 17:08:06.782
159, 140712.50, 135725.55, -88851.49, -73918.94, -9636.24, -36801.07, -36238.75, -35861.36, -30634.00, -53353.05, -41734.19, -42022.86, -71462.19, -91323.84, -38300.00, -40796.83, 0.000, 0.000, 0.000, 17:08:06.782
160, 140712.50, 135725.55, -88851.49, -73918.94, -9636.24, -36801.07, -36238.75, -35861.36, -30631.92, -53344.18, -41720.47, -42035.79, -71460.42, -91321.45, -38310.55, -40809.79, 0.000, 0.000, 0.000, 17:08:06.782
161, 140715.25, 135722.97, -88851.98, -73921.22, -9615.38, -36799.82, -36242.32, -35866.70, -30631.92, -53344.18, -41720.47, -42035.79, -71460.42, -91321.45, -38310.55, -40809.79, 0.000, 0.000, 0.000, 17:08:06.782
162, 140715.25, 135722.97, -88851.98, -73921.22, -9615.38, -36799.82, -36242.32, -35866.70, -30636.46, -53350.35, -41713.41, -42032.21, -71464.36, -91323.57, -38299.33, -40862.59, 0.058, 0.942, -0.274, 17:08:06.783
163, 140710.34, 135740.22, -88860.32, -73933.47, -9611.61, -36800.63, -36253.39, -35871.78, -30636.46, -53350.35, -41713.41, -42032.21, -71464.36, -91323.57, -38299.33, -40862.59, 0.000, 0.000, 0.000, 17:08:06.783
164, 140710.34, 135740.22, -88860.32, -73933.47, -9611.61, -36800.63, -36253.39, -35871.78, -30645.18, -53349.70, -41744.41, -42045.93, -71466.64, -91325.83, -38310.15, -40859.97, 0.000, 0.000, 0.000, 17:08:06.783
165, 140714.63, 135736.08, -88857.10, -73927.99, -9635.30, -36801.30, -36252.50, -35870.30, -30645.18, -53349.70, -41744.41, -42045.93, -71466.64, -91325.83, -38310.15, -40859.97, 0.000, 0.000, 0.000, 17:08:06.783
166, 140714.63, 135736.08, -88857.10, -73927.99, -9635.30, -36801.30, -36252.50, -35870.30, -30635.72, -53350.30, -41730.28, -42027.49, -71458.63, -91314.38, -38320.54, -40826.80, 0.000, 0.000, 0.000, 17:08:06.783
167, 140721.92, 135736.95, -88848.85, -73922.71, -9611.79, -36793.65, -36238.30, -35867.26, -30635.72, -53350.30, -41730.28, -42027.49, -71458.63, -91314.38, -38320.54, -40826.80, 0.000, 0.000, 0.000, 17:08:06.784
168, 140721.92, 135736.95, -88848.85, -73922.71, -9611.79, -36793.65, -36238.30, -35867.26, -30638.14, -53349.61, -41725.61, -42035.45, -71457.32, -91312.84, -38305.52, -40803.78, 0.000, 0.000, 0.000, 17:08:06.784
169, 140721.75, 135740.06, -88855.06, -73928.13, -9623.68, -36800.92, -36248.29, -35871.29, -30638.14, -53349.61, -41725.61, -42035.45, -71457.32, -91312.84, -38305.52, -40803.78, 0.000, 0.000, 0.000, 17:08:06.784
170, 140721.75, 135740.06, -88855.06, -73928.13, -9623.68, -36800.92, -36248.29, -35871.29, -30635.05, -53343.73, -41734.19, -42045.11, -71457.18, -91312.57, -38316.21, -40801.34, 0.000, 0.000, 0.000, 17:08:06.784
171, 140720.36, 135756.63, -88855.58, -73930.25, -9615.50, -36813.88, -36249.59, -35876.34, -30635.05, -53343.73, -41734.19, -42045.11, -71457.18, -91312.57, -38316.21, -40801.34, 0.000, 0.000, 0.000, 17:08:06.784
172, 140720.36, 135756.63, -88855.58, -73930.25, -9615.50, -36813.88, -36249.59, -35876.34, -30641.69, -53354.62, -41743.40, -42040.48, -71459.53, -91312.84, -38300.45, -40804.23, 0.058, 0.936, -0.270, 17:08:06.784
173, 140721.27, 135764.47, -88853.66, -73930.98, -9621.67, -36807.78, -36249.21, -35874.53, -30641.69, -53354.62, -41743.40, -42040.48, -71459.53, -91312.84, -38300.45, -40804.23, 0.000, 0.000, 0.000, 17:08:06.785
174, 140721.27, 135764.47, -88853.66, -73930.98, -9621.67, -36807.78, -36249.21, -35874.53, -30637.56, -53352.16, -41723.29, -42022.30, -71456.87, -91313.09, -38311.61, -40809.41, 0.000, 0.000, 0.000, 17:08:06.785
175, 140719.84, 135755.11, -88857.05, -73938.48, -9608.34, -36787.06, -36248.31, -35875.04, -30637.56, -53352.16, -41723.29, -42022.30, -71456.87, -91313.09, -38311.61, -40809.41, 0.000, 0.000, 0.000, 17:08:06.785
176, 140719.84, 135755.11, -88857.05, -73938.48, -9608.34, -36787.06, -36248.31, -35875.04, -30649.98, -53354.75, -41722.03, -42038.91, -71468.02, -91325.42, -38305.34, -40832.86, 0.000, 0.000, 0.000, 17:08:06.785
177, 140710.80, 135782.58, -88866.27, -73947.16, -9599.90, -36787.28, -36253.14, -35885.97, -30649.98, -53354.75, -41722.03, -42038.91, -71468.02, -91325.42, -38305.34, -40832.86, 0.000, 0.000, 0.000, 17:08:06.785
178, 140710.80, 135782.58, -88866.27, -73947.16, -9599.90, -36787.28, -36253.14, -35885.97, -30649.34, -53354.15, -41763.09, -42056.59, -71467.06, -91322.70, -38304.27, -40833.11, 0.000, 0.000, 0.000, 17:08:06.785
179, 140720.36, 135777.08, -88858.87, -73946.63, -9624.86, -36795.06, -36251.29, -35877.23, -30649.34, -53354.15, -41763.09, -42056.59, -71467.06, -91322.70, -38304.27, -40833.11, 0.000, 0.000, 0.000, 17:08:06.786
180, 140720.36, 135777.08, -88858.87, -73946.63, -9624.86, -36795.06, -36251.29, -35877.23, -30650.41, -53349.88, -41742.06, -42033.66, -71462.73, -91322.16, -38320.16, -40835.56, 0.000, 0.000, 0.000, 17:08:06.786
181, 140725.06, 135779.64, -88854.84, -73945.71, -9614.69, -36805.68, -36250.86, -35879.51, -30650.41, -53349.88, -41742.06, -42033.66, -71462.73, -91322.16, -38320.16, -40835.56, 0.000, 0.000, 0.000, 17:08:06.786
182, 140725.06, 135779.64, -88854.84, -73945.71, -9614.69, -36805.68, -36250.86, -35879.51, -30649.45, -53345.88, -41738.48, -42021.86, -71457.30, -91316.51, -38307.04, -40832.50, 0.058, 0.936, -0.278, 17:08:06.786
183, 140720.44, 135788.36, -88864.37, -73955.37, -9596.94, -36812.34, -36258.06, -35883.20, -30649.45, -53345.88, -41738.48, -42021.86, -71457.30, -91316.51, -38307.04, -40832.50, 0.000, 0.000, 0.000, 17:08:06.786
184, 140720.44, 135788.36, -88864.37, -73955.37, -9596.94, -36812.34, -36258.06, -35883.20, -30654.68, -53359.80, -41737.93, -42016.43, -71467.13, -91327.34, -38308.68, -40839.70, 0.000, 0.000, 0.000, 17:08:06.786
185, 140724.03, 135793.03, -88864.48, -73957.65, -9623.59, -36813.88, -36266.02, -35889.61, -30654.68, -53359.80, -41737.93, -42016.43, -71467.13, -91327.34, -38308.68, -40839.70, 0.000, 0.000, 0.000, 17:08:06.787
186, 140724.03, 135793.03, -88864.48, -73957.65, -9623.59, -36813.88, -36266.02, -35889.61, -30649.27, -53347.09, -41743.67, -42023.87, -71462.48, -91320.46, -38303.58, -40843.59, 0.000, 0.000, 0.000, 17:08:06.787
187, 140733.69, 135805.33, -88860.74, -73950.34, -9610.94, -36820.68, -36249.41, -35886.89, -30649.27, -53347.09, -41743.67, -42023.87, -71462.48, -91320.46, -38303.58, -40843.59, 0.000, 0.000, 0.000, 17:08:06.787
188, 140733.69, 135805.33, -88860.74, -73950.34, -9610.94, -36820.68, -36249.41, -35886.89, -30642.27, -53339.84, -41746.11, -42027.92, -71454.86, -91310.80, -38308.03, -40839.92, 0.000, 0.000, 0.000, 17:08:06.787
189, 140737.13, 135786.58, -88857.63, -73944.33, -9623.79, -36813.95, -36253.03, -35881.95, -30642.27, -53339.84, -41746.11, -42027.92, -71454.86, -91310.80, -38308.03, -40839.92, 0.000, 0.000, 0.000, 17:08:06.788
190, 140737.13, 135786.58, -88857.63, -73944.33, -9623.79, -36813.95, -36253.03, -35881.95, -30652.89, -53346.79, -41732.65, -42034.42, -71460.42, -91312.28, -38325.24, -40830.62, 0.000, 0.000, 0.000, 17:08:06.788
191, 140724.39, 135804.81, -88867.76, -73950.19, -9602.87, -36820.32, -36261.37, -35892.92, -30652.89, -53346.79, -41732.65, -42034.42, -71460.42, -91312.28, -38325.24, -40830.62, 0.000, 0.000, 0.000, 17:08:06.788
192, 140724.39, 135804.81, -88867.76, -73950.19, -9602.87, -36820.32, -36261.37, -35892.92, -30659.53, -53351.13, -41708.51, -42030.20, -71464.27, -91313.84, -38336.50, -40836.95, 0.056, 0.944, -0.280, 17:08:06.789
193, 140722.67, 135811.16, -88865.02, -73940.13, -9596.03, -36807.60, -36252.81, -35884.56, -30659.53, -53351.13, -41708.51, -42030.20, -71464.27, -91313.84, -38336.50, -40836.95, 0.000, 0.000, 0.000, 17:08:06.789
194, 140722.67, 135811.16, -88865.02, -73940.13, -9596.03, -36807.60, -36252.81, -35884.56, -30666.82, -53358.64, -41749.88, -42015.49, -71466.48, -91318.72, -38354.54, -40836.75, 0.000, 0.000, 0.000, 17:08:06.789
195, 140729.34, 135811.98, -88862.45, -73929.17, -9623.12, -36809.16, -36255.18, -35883.82, -30666.82, -53358.64, -41749.88, -42015.49, -71466.48, -91318.72, -38354.54, -40836.75, 0.000, 0.000, 0.000, 17:08:06.789
196, 140729.34, 135811.98, -88862.45, -73929.17, -9623.12, -36809.16, -36255.18, -35883.82, -30661.41, -53341.95, -41742.84, -42022.98, -71453.34, -91309.48, -38359.44, -40828.39, 0.000, 0.000, 0.000, 17:08:06.790
197, 140732.88, 135822.77, -88862.84, -73916.63, -9615.79, -36813.88, -36249.70, -35885.34, -30661.41, -53341.95, -41742.84, -42022.98, -71453.34, -91309.48, -38359.44, -40828.39, 0.000, 0.000, 0.000, 17:08:06.790
198, 140732.88, 135822.77, -88862.84, -73916.63, -9615.79, -36813.88, -36249.70, -35885.34, -30665.99, -53348.09, -41728.22, -42020.68, -71459.64, -91319.66, -38359.97, -40831.52, 0.000, 0.000, 0.000, 17:08:06.790
199, 140737.39, 135815.75, -88864.03, -73907.88, -9640.40, -36814.20, -36249.57, -35877.54, -30665.99, -53348.09, -41728.22, -42020.68, -71459.64, -91319.66, -38359.97, -40831.52, 0.000, 0.000, 0.000, 17:08:06.791
200, 140737.39, 135815.75, -88864.03, -73907.88, -9640.40, -36814.20, -36249.57, -35877.54, -30663.84, -53352.83, -41732.63, -42032.77, -71461.68, -91322.67, -38367.98, -40818.51, 0.000, 0.000, 0.000, 17:08:06.791
201, 140737.69, 135820.02, -88864.77, -73901.15, -9624.04, -36817.23, -36255.67, -35886.66, -30663.84, -53352.83, -41732.63, -42032.77, -71461.68, -91322.67, -38367.98, -40818.51, 0.000, 0.000, 0.000, 17:08:06.791
202, 140737.69, 135820.02, -88864.77, -73901.15, -9624.04, -36817.23, -36255.67, -35886.66, -30656.98, -53337.61, -41715.66, -42026.51, -71454.26, -91320.98, -38359.26, -40818.24, 0.056, 0.940, -0.278, 17:08:06.791
203, 140742.20, 135819.63, -88857.88, -73890.69, -9613.08, -36805.07, -36249.59, -35880.02, -30656.98, -53337.61, -41715.66, -42026.51, -71454.26, -91320.98, -38359.26, -40818.24, 0.000, 0.000, 0.000, 17:08:06.791
204, 140742.20, 135819.63, -88857.88, -73890.69, -9613.08, -36805.07, -36249.59, -35880.02, -30666.17, -53341.77, -41725.25, -42020.52, -71457.50, -91330.12, -38359.93, -40820.77, 0.000, 0.000, 0.000, 17:08:06.792
205, 140738.11, 135816.19, -88866.89, -73888.78, -9642.63, -36801.70, -36258.20, -35882.91, -30666.17, -53341.77, -41725.25, -42020.52, -71457.50, -91330.12, -38359.93, -40820.77, 0.000, 0.000, 0.000, 17:08:06.793
206, 140738.11, 135816.19, -88866.89, -73888.78, -9642.63, -36801.70, -36258.20, -35882.91, -30662.79, -53348.54, -41741.10, -42015.91, -71459.84, -91332.35, -38363.84, -40825.08, 0.000, 0.000, 0.000, 17:08:06.793
207, 140735.58, 135816.91, -88864.23, -73877.45, -9622.83, -36790.97, -36247.82, -35882.91, -30662.79, -53348.54, -41741.10, -42015.91, -71459.84, -91332.35, -38363.84, -40825.08, 0.000, 0.000, 0.000, 17:08:06.794
208, 140735.58, 135816.91, -88864.23, -73877.45, -9622.83, -36790.97, -36247.82, -35882.91, -30664.04, -53348.94, -41728.61, -42021.75, -71461.79, -91333.63, -38353.40, -40821.39, 0.000, 0.000, 0.000, 17:08:06.794
209, 140731.63, 135821.52, -88869.62, -73881.90, -9638.05, -36791.20, -36249.12, -35883.55, -30664.04, -53348.94, -41728.61, -42021.75, -71461.79, -91333.63, -38353.40, -40821.39, 0.000, 0.000, 0.000, 17:08:06.795
210, 140731.63, 135821.52, -88869.62, -73881.90, -9638.05, -36791.20, -36249.12, -35883.55, -30662.32, -53345.59, -41729.99, -42045.98, -71459.93, -91331.21, -38367.86, -40823.02, 0.000, 0.000, 0.000, 17:08:06.795
211, 140729.23, 135845.88, -88869.08, -73875.89, -9627.50, -36799.22, -36254.24, -35890.80, -30662.32, -53345.59, -41729.99, -42045.98, -71459.93, -91331.21, -38367.86, -40823.02, 0.000, 0.000, 0.000, 17:08:06.795
212, 140729.23, 135845.88, -88869.08, -73875.89, -9627.50, -36799.22, -36254.24, -35890.80, -30675.71, -53358.46, -41743.96, -42048.75, -71470.17, -91341.74, -38357.83, -40832.30, 0.058, 0.940, -0.280, 17:08:06.795
213, 140724.13, 135875.31, -88871.85, -73884.59, -9632.69, -36803.96, -36255.15, -35892.36, -30675.71, -53358.46, -41743.96, -42048.75, -71470.17, -91341.74, -38357.83, -40832.30, 0.000, 0.000, 0.000, 17:08:06.796
214, 140724.13, 135875.31, -88871.85, -73884.59, -9632.69, -36803.96, -36255.15, -35892.36, -30665.63, -53343.91, -41711.17, -42024.72, -71456.83, -91330.45, -38387.02, -40819.25, 0.000, 0.000, 0.000, 17:08:06.796
215, 140732.23, 135858.13, -88863.80, -73874.81, -9629.58, -36799.15, -36248.74, -35881.86, -30665.63, -53343.91, -41711.17, -42024.72, -71456.83, -91330.45, -38387.02, -40819.25, 0.000, 0.000, 0.000, 17:08:06.796
216, 140732.23, 135858.13, -88863.80, -73874.81, -9629.58, -36799.15, -36248.74, -35881.86, -30662.97, -53353.03, -41740.65, -42014.37, -71459.22, -91330.01, -38373.85, -40820.21, 0.000, 0.000, 0.000, 17:08:06.796
217, 140732.77, 135876.36, -88865.41, -73869.65, -9611.72, -36794.41, -36249.39, -35883.64, -30662.97, -53353.03, -41740.65, -42014.37, -71459.22, -91330.01, -38373.85, -40820.21, 0.000, 0.000, 0.000, 17:08:06.797
218, 140732.77, 135876.36, -88865.41, -73869.65, -9611.72, -36794.41, -36249.39, -35883.64, -30668.02, -53350.19, -41755.56, -42034.36, -71457.88, -91330.97, -38360.64, -40810.53, 0.000, 0.000, 0.000, 17:08:06.797
219, 140730.48, 135887.89, -88871.45, -73881.05, -9634.14, -36796.65, -36252.18, -35880.18, -30668.02, -53350.19, -41755.56, -42034.36, -71457.88, -91330.97, -38360.64, -40810.53, 0.000, 0.000, 0.000, 17:08:06.797
220, 140730.48, 135887.89, -88871.45, -73881.05, -9634.14, -36796.65, -36252.18, -35880.18, -30678.82, -53349.43, -41748.48, -42055.50, -71468.56, -91342.44, -38361.79, -40807.15, 0.000, 0.000, 0.000, 17:08:06.798
221, 140726.83, 135913.13, -88874.09, -73875.73, -9625.58, -36794.73, -36243.02, -35878.32, -30678.82, -53349.43, -41748.48, -42055.50, -71468.56, -91342.44, -38361.79, -40807.15, 0.000, 0.000, 0.000, 17:08:06.798
222, 140726.83, 135913.13, -88874.09, -73875.73, -9625.58, -36794.73, -36243.02, -35878.32, -30669.34, -53349.01, -41728.83, -42039.90, -71460.18, -91333.72, -38353.22, -40802.23, 0.060, 0.940, -0.274, 17:08:06.798
223, 140723.31, 135930.20, -88874.98, -73879.66, -9609.89, -36780.80, -36248.98, -35877.19, -30669.34, -53349.01, -41728.83, -42039.90, -71460.18, -91333.72, -38353.22, -40802.23, 0.000, 0.000, 0.000, 17:08:06.798
224, 140723.31, 135930.20, -88874.98, -73879.66, -9609.89, -36780.80, -36248.98, -35877.19, -30682.48, -53362.71, -41742.89, -42040.19, -71472.18, -91347.02, -38358.52, -40816.52, 0.000, 0.000, 0.000, 17:08:06.799
225, 140722.38, 135940.33, -88878.22, -73879.95, -9631.61, -36781.11, -36252.38, -35883.15, -30682.48, -53362.71, -41742.89, -42040.19, -71472.18, -91347.02, -38358.52, -40816.52, 0.000, 0.000, 0.000, 17:08:06.799
226, 140722.38, 135940.33, -88878.22, -73879.95, -9631.61, -36781.11, -36252.38, -35883.15, -30675.04, -53349.93, -41724.58, -42029.50, -71461.52, -91333.61, -38356.78, -40816.86, 0.000, 0.000, 0.000, 17:08:07.250
227, 140729.39, 135961.33, -88871.94, -73868.53, -9599.92, -36779.37, -36244.83, -35880.38, -30675.04, -53349.93, -41724.58, -42029.50, -71461.52, -91333.61, -38356.78, -40816.86, 0.000, 0.000, 0.000, 17:08:07.250
228, 140729.39, 135961.33, -88871.94, -73868.53, -9599.92, -36779.37, -36244.83, -35880.38, -30675.40, -53349.28, -41746.91, -42037.02, -71457.09, -91330.84, -38354.18, -40817.88, 0.000, 0.000, 0.000, 17:08:07.250
229, 140733.95, 135956.97, -88874.34, -73871.71, -9623.41, -36776.96, -36248.52, -35878.66, -30675.40, -53349.28, -41746.91, -42037.02, -71457.09, -91330.84, -38354.18, -40817.88, 0.000, 0.000, 0.000, 17:08:07.250
230, 140733.95, 135956.97, -88874.34, -73871.71, -9623.41, -36776.96, -36248.52, -35878.66, -30679.40, -53358.46, -41748.59, -42038.64, -71459.06, -91333.38, -38365.72, -40816.09, 0.000, 0.000, 0.000, 17:08:07.251
231, 140731.39, 135977.86, -88875.79, -73871.98, -9617.35, -36780.06, -36237.83, -35876.47, -30679.40, -53358.46, -41748.59, -42038.64, -71459.06, -91333.38, -38365.72, -40816.09, 0.000, 0.000, 0.000, 17:08:07.251
232, 140731.39, 135977.86, -88875.79, -73871.98, -9617.35, -36780.06, -36237.83, -35876.47, -30698.62, -53354.04, -41740.20, -42043.83, -71466.80, -91342.57, -38354.96, -40806.24, 0.054, 0.938, -0.274, 17:08:07.251
233, 140721.97, 136022.11, -88884.86, -73881.81, -9620.15, -36785.63, -36247.62, -35877.43, -30698.62, -53354.04, -41740.20, -42043.83, -71466.80, -91342.57, -38354.96, -40806.24, 0.000, 0.000, 0.000, 17:08:07.251
234, 140721.97, 136022.11, -88884.86, -73881.81, -9620.15, -36785.63, -36247.62, -35877.43, -30698.13, -53352.65, -41740.61, -42030.91, -71461.05, -91339.69, -38380.11, -40790.48, 0.000, 0.000, 0.000, 17:08:07.251
235, 140731.73, 136011.52, -88869.93, -73871.17, -9621.33, -36768.57, -36238.50, -35873.81, -30698.13, -53352.65, -41740.61, -42030.91, -71461.05, -91339.69, -38380.11, -40790.48, 0.000, 0.000, 0.000, 17:08:07.252
236, 140731.73, 136011.52, -88869.93, -73871.17, -9621.33, -36768.57, -36238.50, -35873.81, -30695.18, -53360.83, -41735.80, -42024.39, -71462.10, -91340.55, -38387.76, -40805.45, 0.000, 0.000, 0.000, 17:08:07.252
237, 140721.33, 136035.28, -88880.48, -73881.34, -9602.69, -36781.11, -36248.74, -35887.40, -30695.18, -53360.83, -41735.80, -42024.39, -71462.10, -91340.55, -38387.76, -40805.45, 0.000, 0.000, 0.000, 17:08:07.252
238, 140721.33, 136035.28, -88880.48, -73881.34, -9602.69, -36781.11, -36248.74, -35887.40, -30705.17, -53357.88, -41773.49, -42032.68, -71463.42, -91342.75, -38403.89, -40793.03, 0.000, 0.000, 0.000, 17:08:07.252
239, 140730.84, 136023.50, -88876.41, -73874.73, -9632.13, -36770.16, -36244.87, -35877.41, -30705.17, -53357.88, -41773.49, -42032.68, -71463.42, -91342.75, -38403.89, -40793.03, 0.000, 0.000, 0.000, 17:08:07.252
240, 140730.84, 136023.50, -88876.41, -73874.73, -9632.13, -36770.16, -36244.87, -35877.41, -30707.14, -53359.40, -41756.50, -42047.90, -71464.72, -91344.47, -38413.80, -40786.68, 0.000, 0.000, 0.000, 17:08:07.252
241, 140726.67, 136053.77, -88883.48, -73875.09, -9615.68, -36786.10, -36243.71, -35882.57, -30707.14, -53359.40, -41756.50, -42047.90, -71464.72, -91344.47, -38413.80, -40786.68, 0.000, 0.000, 0.000, 17:08:07.253
242, 140726.67, 136053.77, -88883.48, -73875.09, -9615.68, -36786.10, -36243.71, -35882.57, -30710.42, -53363.45, -41741.61, -42048.97, -71468.43, -91345.63, -38414.67, -40792.96, 0.056, 0.940, -0.276, 17:08:07.253
243, 140719.56, 136064.20, -88890.80, -73879.24, -9614.56, -36783.62, -36247.13, -35884.36, -30710.42, -53363.45, -41741.61, -42048.97, -71468.43, -91345.63, -38414.67, -40792.96, 0.000, 0.000, 0.000, 17:08:07.253
244, 140719.56, 136064.20, -88890.80, -73879.24, -9614.56, -36783.62, -36247.13, -35884.36, -30709.93, -53368.54, -41757.39, -42043.05, -71469.63, -91346.81, -38424.26, -40795.44, 0.000, 0.000, 0.000, 17:08:07.254
245, 140726.06, 136051.55, -88882.60, -73872.27, -9617.64, -36781.16, -36248.56, -35888.77, -30709.93, -53368.54, -41757.39, -42043.05, -71469.63, -91346.81, -38424.26, -40795.44, 0.000, 0.000, 0.000, 17:08:07.254
246, 140726.06, 136051.55, -88882.60, -73872.27, -9617.64, -36781.16, -36248.56, -35888.77, -30700.21, -53354.42, -41747.87, -42026.93, -71456.52, -91333.77, -38417.53, -40776.75, 0.000, 0.000, 0.000, 17:08:07.254
247, 140733.22, 136047.28, -88875.14, -73866.63, -9595.51, -36776.11, -36240.63, -35881.05, -30700.21, -53354.42, -41747.87, -42026.93, -71456.52, -91333.77, -38417.53, -40776.75, 0.000, 0.000, 0.000, 17:08:07.254
248, 140733.22, 136047.28, -88875.14, -73866.63, -9595.51, -36776.11, -36240.63, -35881.05, -30703.88, -53355.54, -41749.79, -42018.28, -71457.72, -91340.16, -38404.48, -40779.30, 0.000, 0.000, 0.000, 17:08:07.254
249, 140732.56, 136037.45, -88877.02, -73878.33, -9609.57, -36771.79, -36248.40, -35876.76, -30703.88, -53355.54, -41749.79, -42018.28, -71457.72, -91340.16, -38404.48, -40779.30, 0.000, 0.000, 0.000, 17:08:07.254
250, 140732.56, 136037.45, -88877.02, -73878.33, -9609.57, -36771.79, -36248.40, -35876.76, -30708.28, -53350.86, -41750.11, -42041.37, -71463.98, -91346.73, -38392.67, -40790.99, 0.000, 0.000, 0.000, 17:08:07.255
251, 140734.38, 136052.67, -88873.86, -73870.13, -9595.00, -36781.36, -36236.54, -35880.36, -30708.28, -53350.86, -41750.11, -42041.37, -71463.98, -91346.73, -38392.67, -40790.99, 0.000, 0.000, 0.000, 17:08:07.255
252, 140734.38, 136052.67, -88873.86, -73870.13, -9595.00, -36781.36, -36236.54, -35880.36, -30702.82, -53344.20, -41751.67, -42035.09, -71457.52, -91338.61, -38387.04, -40791.62, 0.000, 0.000, 0.000, 17:08:07.255
253, 140723.25, 136070.80, -88884.70, -73882.26, -9586.82, -36785.32, -36247.33, -35886.24, -30702.82, -53344.20, -41751.67, -42035.09, -71457.52, -91338.61, -38387.04, -40791.62, 0.058, 0.934, -0.274, 17:08:07.255
254, 140723.25, 136070.80, -88884.70, -73882.26, -9586.82, -36785.32, -36247.33, -35886.24, -30707.52, -53351.18, -41772.84, -42034.27, -71465.54, -91341.79, -38403.96, -40800.16, 0.000, 0.000, 0.000, 17:08:07.255
255, 140725.75, 136070.08, -88885.35, -73886.17, -9599.72, -36782.05, -36243.20, -35887.18, -30707.52, -53351.18, -41772.84, -42034.27, -71465.54, -91341.79, -38403.96, -40800.16, 0.000, 0.000, 0.000, 17:08:07.255
0, 140725.75, 136070.08, -88885.35, -73886.17, -9599.72, -36782.05, -36243.20, -35887.18, -30718.67, -53367.65, -41759.23, -42028.77, -71471.98, -91345.50, -38411.65, -40805.72, 0.000, 0.000, 0.000, 17:08:07.256
1, 140711.64, 136099.59, -88891.39, -73895.55, -9603.16, -36790.30, -36254.62, -35897.04, -30718.67, -53367.65, -41759.23, -42028.77, -71471.98, -91345.50, -38411.65, -40805.72, 0.000, 0.000, 0.000, 17:08:07.256
2, 140711.64, 136099.59, -88891.39, -73895.55, -9603.16, -36790.30, -36254.62, -35897.04, -30719.52, -53365.55, -41749.77, -42046.02, -71471.51, -91349.50, -38428.62, -40807.82, 0.000, 0.000, 0.000, 17:08:07.256
3, 140718.52, 136085.97, -88888.68, -73894.59, -9622.72, -36787.30, -36243.20, -35887.87, -30719.52, -53365.55, -41749.77, -42046.02, -71471.51, -91349.50, -38428.62, -40807.82, 0.000, 0.000, 0.000, 17:08:07.256
4, 140718.52, 136085.97, -88888.68, -73894.59, -9622.72, -36787.30, -36243.20, -35887.87, -30718.16, -53359.09, -41743.40, -42054.43, -71466.88, -91346.68, -38434.11, -40801.27, 0.000, 0.000, 0.000, 17:08:07.256
5, 140724.23, 136096.55, -88883.61, -73885.74, -9603.74, -36781.29, -36242.75, -35887.00, -30718.16, -53359.09, -41743.40, -42054.43, -71466.88, -91346.68, -38434.11, -40801.27, 0.000, 0.000, 0.000, 17:08:07.256
6, 140724.23, 136096.55, -88883.61, -73885.74, -9603.74, -36781.29, -36242.75, -35887.00, -30712.12, -53361.32, -41751.27, -42038.09, -71460.96, -91338.91, -38418.27, -40792.83, 0.000, 0.000, 0.000, 17:08:07.257
7, 140726.27, 136090.95, -88884.44, -73886.44, -9605.57, -36772.06, -36249.57, -35885.14, -30712.12, -53361.32, -41751.27, -42038.09, -71460.96, -91338.91, -38418.27, -40792.83, 0.060, 0.942, -0.270, 17:08:07.257
8, 140726.27, 136090.95, -88884.44, -73886.44, -9605.57, -36772.06, -36249.57, -35885.14, -30721.29, -53367.20, -41777.93, -42032.83, -71468.56, -91348.38, -38418.54, -40790.37, 0.000, 0.000, 0.000, 17:08:07.257
9, 140729.13, 136104.02, -88887.56, -73889.08, -9619.81, -36774.03, -36251.22, -35880.65, -30721.29, -53367.20, -41777.93, -42032.83, -71468.56, -91348.38, -38418.54, -40790.37, 0.000, 0.000, 0.000, 17:08:07.257
10, 140729.13, 136104.02, -88887.56, -73889.08, -9619.81, -36774.03, -36251.22, -35880.65, -30724.46, -53364.79, -41764.37, -42054.02, -71467.55, -91349.43, -38408.70, -40795.87, 0.000, 0.000, 0.000, 17:08:07.257
11, 140725.38, 136119.75, -88890.90, -73891.58, -9603.58, -36779.30, -36247.11, -35885.14, -30724.46, -53364.79, -41764.37, -42054.02, -71467.55, -91349.43, -38408.70, -40795.87, 0.000, 0.000, 0.000, 17:08:07.257
12, 140725.38, 136119.75, -88890.90, -73891.58, -9603.58, -36779.30, -36247.11, -35885.14, -30719.57, -53361.79, -41739.96, -42052.68, -71465.19, -91345.66, -38414.40, -40778.72, 0.000, 0.000, 0.000, 17:08:07.258
13, 140732.44, 136102.47, -88888.80, -73887.58, -9623.32, -36769.40, -36249.84, -35878.32, -30719.57, -53361.79, -41739.96, -42052.68, -71465.19, -91345.66, -38414.40, -40778.72, 0.000, 0.000, 0.000, 17:08:07.258
14, 140732.44, 136102.47, -88888.80, -73887.58, -9623.32, -36769.40, -36249.84, -35878.32, -30721.96, -53367.29, -41736.02, -42036.23, -71468.67, -91349.12, -38418.60, -40780.45, 0.000, 0.000, 0.000, 17:08:07.259
15, 140724.77, 136124.58, -88894.72, -73900.16, -9605.51, -36779.21, -36255.33, -35886.77, -30721.96, -53367.29, -41736.02, -42036.23, -71468.67, -91349.12, -38418.60, -40780.45, 0.000, 0.000, 0.000, 17:08:07.259
16, 140724.77, 136124.58, -88894.72, -73900.16, -9605.51, -36779.21, -36255.33, -35886.77, -30724.13, -53372.23, -41735.82, -42030.53, -71469.73, -91352.54, -38415.54, -40778.95, 0.000, 0.000, 0.000, 17:08:07.259
17, 140738.31, 136116.94, -88876.30, -73881.66, -9611.61, -36764.46, -36233.81, -35871.17, -30724.13, -53372.23, -41735.82, -42030.53, -71469.73, -91352.54, -38415.54, -40778.95, 0.064, 0.942, -0.272, 17:08:07.259
18, 140738.31, 136116.94, -88876.30, -73881.66, -9611.61, -36764.46, -36233.81, -35871.17, -30706.67, -53349.97, -41766.18, -42028.77, -71449.49, -91329.52, -38413.57, -40763.41, 0.000, 0.000, 0.000, 17:08:07.260
19, 140742.94, 136121.31, -88873.53, -73873.30, -9611.27, -36765.60, -36229.70, -35869.79, -30706.67, -53349.97, -41766.18, -42028.77, -71449.49, -91329.52, -38413.57, -40763.41, 0.000, 0.000, 0.000, 17:08:07.260
20, 140742.94, 136121.31, -88873.53, -73873.30, -9611.27, -36765.60, -36229.70, -35869.79, -30728.98, -53367.98, -41755.29, -42035.36, -71465.54, -91347.64, -38393.41, -40786.41, 0.000, 0.000, 0.000, 17:08:07.260
21, 140724.91, 136165.95, -88890.52, -73896.25, -9601.86, -36783.04, -36251.27, -35892.61, -30728.98, -53367.98, -41755.29, -42035.36, -71465.54, -91347.64, -38393.41, -40786.41, 0.000, 0.000, 0.000, 17:08:07.260
22, 140724.91, 136165.95, -88890.52, -73896.25, -9601.86, -36783.04, -36251.27, -35892.61, -30725.36, -53365.30, -41752.54, -42040.86, -71463.53, -91345.43, -38410.15, -40780.78, 0.000, 0.000, 0.000, 17:08:07.261
23, 140741.94, 136140.36, -88872.90, -73877.50, -9622.29, -36769.60, -36236.11, -35877.88, -30725.36, -53365.30, -41752.54, -42040.86, -71463.53, -91345.43, -38410.15, -40780.78, 0.000, 0.000, 0.000, 17:08:07.261
24, 140741.94, 136140.36, -88872.90, -73877.50, -9622.29, -36769.60, -36236.11, -35877.88, -30718.72, -53355.94, -41739.13, -42026.60, -71455.44, -91337.20, -38417.06, -40764.13, 0.000, 0.000, 0.000, 17:08:07.261
25, 140737.69, 136161.56, -88878.87, -73885.19, -9585.30, -36778.90, -36234.68, -35876.83, -30718.72, -53355.94, -41739.13, -42026.60, -71455.44, -91337.20, -38417.06, -40764.13, 0.000, 0.000, 0.000, 17:08:07.261
26, 140737.69, 136161.56, -88878.87, -73885.19, -9585.30, -36778.90, -36234.68, -35876.83, -30728.22, -53365.57, -41723.69, -42043.43, -71464.90, -91348.52, -38406.80, -40779.71, 0.000, 0.000, 0.000, 17:08:07.261
27, 140735.66, 136168.95, -88883.79, -73895.87, -9601.82, -36792.18, -36250.82, -35882.50, -30728.22, -53365.57, -41723.69, -42043.43, -71464.90, -91348.52, -38406.80, -40779.71, 0.062, 0.932, -0.274, 17:08:07.262
28, 140735.66, 136168.95, -88883.79, -73895.87, -9601.82, -36792.18, -36250.82, -35882.50, -30717.22, -53352.88, -41750.11, -42050.34, -71456.65, -91338.95, -38430.34, -40780.22, 0.000, 0.000, 0.000, 17:08:07.262
29, 140744.92, 136166.22, -88876.50, -73884.78, -9599.05, -36786.32, -36242.88, -35876.25, -30717.22, -53352.88, -41750.11, -42050.34, -71456.65, -91338.95, -38430.34, -40780.22, 0.000, 0.000, 0.000, 17:08:07.263
30, 140744.92, 136166.22, -88876.50, -73884.78, -9599.05, -36786.32, -36242.88, -35876.25, -30725.27, -53362.13, -41743.31, -42038.24, -71461.20, -91342.14, -38417.17, -40776.96, 0.000, 0.000, 0.000, 17:08:07.263
31, 140730.48, 136216.73, -88889.22, -73896.92, -9585.46, -36801.39, -36246.46, -35884.14, -30725.27, -53362.13, -41743.31, -42038.24, -71461.20, -91342.14, -38417.17, -40776.96, 0.000, 0.000, 0.000, 17:08:07.263
32, 140730.48, 136216.73, -88889.22, -73896.92, -9585.46, -36801.39, -36246.46, -35884.14, -30732.93, -53371.00, -41772.84, -42045.06, -71463.95, -91346.55, -38406.82, -40768.20, 0.000, 0.000, 0.000, 17:08:07.263
33, 140730.88, 136232.11, -88885.35, -73897.23, -9606.98, -36776.98, -36245.01, -35880.94, -30732.93, -53371.00, -41772.84, -42045.06, -71463.95, -91346.55, -38406.82, -40768.20, 0.000, 0.000, 0.000, 17:08:07.264
34, 140730.88, 136232.11, -88885.35, -73897.23, -9606.98, -36776.98, -36245.01, -35880.94, -30731.84, -53370.73, -41746.15, -42031.61, -71462.55, -91343.62, -38421.17, -40758.07, 0.000, 0.000, 0.000, 17:08:07.264
35, 140730.17, 136255.84, -88882.49, -73894.71, -9592.99, -36756.75, -36236.69, -35876.85, -30731.84, -53370.73, -41746.15, -42031.61, -71462.55, -91343.62, -38421.17, -40758.07, 0.000, 0.000, 0.000, 17:08:07.264
36, 140730.17, 136255.84, -88882.49, -73894.71, -9592.99, -36756.75, -36236.69, -35876.85, -30727.23, -53358.69, -41748.32, -42045.02, -71455.91, -91335.77, -38412.01, -40769.09, 0.000, 0.000, 0.000, 17:08:07.265
37, 140735.45, 136273.66, -88879.49, -73896.79, -9593.44, -36758.23, -36236.33, -35880.29, -30727.23, -53358.69, -41748.32, -42045.02, -71455.91, -91335.77, -38412.01, -40769.09, 0.060, 0.938, -0.274, 17:08:07.265
38, 140735.45, 136273.66, -88879.49, -73896.79, -9593.44, -36758.23, -36236.33, -35880.29, -30735.48, -53370.18, -41741.12, -42036.32, -71462.01, -91345.16, -38423.21, -40790.01, 0.000, 0.000, 0.000, 17:08:07.265
39, 140726.83, 136286.92, -88891.95, -73908.68, -9603.67, -36788.94, -36251.80, -35887.31, -30735.48, -53370.18, -41741.12, -42036.32, -71462.01, -91345.16, -38423.21, -40790.01, 0.000, 0.000, 0.000, 17:08:07.265
40, 140726.83, 136286.92, -88891.95, -73908.68, -9603.67, -36788.94, -36251.80, -35887.31, -30736.69, -53362.20, -41759.23, -42049.62, -71461.12, -91341.23, -38426.22, -40807.51, 0.000, 0.000, 0.000, 17:08:07.266
41, 140738.53, 136301.45, -88880.39, -73894.48, -9595.87, -36795.30, -36238.30, -35883.42, -30736.69, -53362.20, -41759.23, -42049.62, -71461.12, -91341.23, -38426.22, -40807.51, 0.000, 0.000, 0.000, 17:08:07.266
42, 140738.53, 136301.45, -88880.39, -73894.48, -9595.87, -36795.30, -36238.30, -35883.42, -30731.55, -53360.32, -41754.33, -42044.95, -71452.87, -91333.13, -38425.24, -40807.94, 0.000, 0.000, 0.000, 17:08:07.266
43, 140732.03, 136296.73, -88878.09, -73891.27, -9606.53, -36782.68, -36242.23, -35875.87, -30731.55, -53360.32, -41754.33, -42044.95, -71452.87, -91333.13, -38425.24, -40807.94, 0.000, 0.000, 0.000, 17:08:07.266
44, 140732.03, 136296.73, -88878.09, -73891.27, -9606.53, -36782.68, -36242.23, -35875.87, -30738.21, -53370.13, -41758.64, -42028.92, -71457.54, -91335.08, -38417.55, -40801.30, 0.000, 0.000, 0.000, 17:08:07.267
45, 140723.77, 136330.48, -88885.89, -73899.29, -9596.94, -36795.39, -36238.95, -35884.59, -30738.21, -53370.13, -41758.64, -42028.92, -71457.54, -91335.08, -38417.55, -40801.30, 0.000, 0.000, 0.000, 17:08:07.267
46, 140723.77, 136330.48, -88885.89, -73899.29, -9596.94, -36795.39, -36238.95, -35884.59, -30740.04, -53365.13, -41741.88, -42050.87, -71462.21, -91341.27, -38426.11, -40810.37, 0.000, 0.000, 0.000, 17:08:07.267
47, 140723.52, 136337.77, -88890.60, -73907.52, -9595.80, -36793.70, -36253.81, -35883.11, -30740.04, -53365.13, -41741.88, -42050.87, -71462.21, -91341.27, -38426.11, -40810.37, 0.056, 0.942, -0.274, 17:08:07.267
48, 140723.52, 136337.77, -88890.60, -73907.52, -9595.80, -36793.70, -36253.81, -35883.11, -30743.42, -53369.84, -41734.15, -42047.12, -71462.84, -91341.81, -38435.30, -40806.84, 0.000, 0.000, 0.000, 17:08:07.267
