%OpenBCI Raw EEG Data
%
%Sample Rate = 250.0 Hz
%First Column = SampleIndex
%Last Column = Timestamp 
%Other Columns = EEG data in microvolts followed by Accel Data (in G) interleaved with Aux Data
0, 0.00, 0.00, 0.00, 0.00, 0.00, 0.00, 0.00, 0.00, -24434.46, -29297.44, -19981.14, -14651.79, -33414.47, -48414.46, -7841.86, -23164.59, -0.188, 0.830, 0.048, 17:21:52.317
1, 63073.13, 79870.70, -47599.69, -41456.23, -11393.58, -15707.38, -16521.13, -19545.73, -24434.46, -29297.44, -19981.14, -14651.79, -33414.47, -48414.46, -7841.86, -23164.59, 0.000, 0.000, 0.000, 17:21:52.802
2, 63073.13, 79870.70, -47599.69, -41456.23, -11393.58, -15707.38, -16521.13, -19545.73, -50963.07, -60330.69, -41205.42, -38928.13, -65764.59, -100826.64, -43384.42, -26229.82, 0.000, 0.000, 0.000, 17:21:52.802
3, 126149.69, 159739.13, -95199.63, -82912.66, -22772.56, -31408.40, -33032.12, -39077.60, -50963.07, -60330.69, -41205.42, -38928.13, -65764.59, -100826.64, -43384.42, -26229.82, 0.000, 0.000, 0.000, 17:21:52.803
4, 126149.69, 159739.13, -95199.63, -82912.66, -22772.56, -31408.40, -33032.12, -39077.60, -50976.19, -60335.69, -41197.88, -38939.15, -65772.87, -100834.62, -43381.14, -26231.69, 0.000, 0.000, 0.000, 17:21:52.804
5, 126146.38, 159733.08, -95207.90, -82920.05, -22772.31, -31428.76, -33035.52, -39090.11, -50976.19, -60335.69, -41197.88, -38939.15, -65772.87, -100834.62, -43381.14, -26231.69, 0.000, 0.000, 0.000, 17:21:52.804
6, 126146.38, 159733.08, -95207.90, -82920.05, -22772.31, -31428.76, -33035.52, -39090.11, -50973.62, -60332.92, -41212.64, -38950.26, -65769.58, -100832.98, -43388.02, -26247.29, 0.000, 0.000, 0.000, 17:21:52.805
7, 126159.52, 159738.50, -95201.33, -82913.75, -22762.86, -31427.02, -33046.58, -39081.91, -50973.62, -60332.92, -41212.64, -38950.26, -65769.58, -100832.98, -43388.02, -26247.29, 0.000, 0.000, 0.000, 17:21:52.806
8, 126159.52, 159738.50, -95201.33, -82913.75, -22762.86, -31427.02, -33046.58, -39081.91, -50971.00, -60327.16, -41218.56, -38948.63, -65765.49, -100826.55, -43384.20, -26255.54, 0.024, 0.896, -0.412, 17:21:52.806
9, 126168.33, 159741.83, -95202.45, -82912.59, -22772.78, -31427.15, -33053.31, -39077.82, -50971.00, -60327.16, -41218.56, -38948.63, -65765.49, -100826.55, -43384.20, -26255.54, 0.000, 0.000, 0.000, 17:21:52.807
10, 126168.33, 159741.83, -95202.45, -82912.59, -22772.78, -31427.15, -33053.31, -39077.82, -50979.16, -60343.29, -41212.75, -38950.68, -65774.88, -100833.27, -43389.81, -26256.01, 0.000, 0.000, 0.000, 17:21:52.807
11, 126167.81, 159732.41, -95212.35, -82920.95, -22774.33, -31435.87, -33061.43, -39093.91, -50979.16, -60343.29, -41212.75, -38950.68, -65774.88, -100833.27, -43389.81, -26256.01, 0.000, 0.000, 0.000, 17:21:52.809
12, 126167.81, 159732.41, -95212.35, -82920.95, -22774.33, -31435.87, -33061.43, -39093.91, -50990.00, -60355.18, -41229.20, -38955.49, -65785.27, -100843.49, -43406.95, -26275.82, 0.000, 0.000, 0.000, 17:21:52.810
13, 126175.46, 159729.61, -95212.39, -82920.01, -22765.12, -31425.95, -33053.33, -39088.35, -50990.00, -60355.18, -41229.20, -38955.49, -65785.27, -100843.49, -43406.95, -26275.82, 0.000, 0.000, 0.000, 17:21:52.810
14, 126175.46, 159729.61, -95212.39, -82920.01, -22765.12, -31425.95, -33053.33, -39088.35, -50984.71, -60354.47, -41227.61, -38958.29, -65782.81, -100838.59, -43398.13, -26290.37, 0.000, 0.000, 0.000, 17:21:52.811
15, 126176.82, 159727.66, -95219.55, -82922.40, -22782.91, -31436.99, -33058.41, -39095.01, -50984.71, -60354.47, -41227.61, -38958.29, -65782.81, -100838.59, -43398.13, -26290.37, 0.000, 0.000, 0.000, 17:21:52.811
16, 126176.82, 159727.66, -95219.55, -82922.40, -22782.91, -31436.99, -33058.41, -39095.01, -50992.13, -60360.08, -41237.92, -38970.78, -65790.52, -100846.35, -43408.32, -26287.21, 0.000, 0.000, 0.000, 17:21:52.812
17, 126180.82, 159731.53, -95216.66, -82921.13, -22775.40, -31441.68, -33061.36, -39095.61, -50992.13, -60360.08, -41237.92, -38970.78, -65790.52, -100846.35, -43408.32, -26287.21, 0.000, 0.000, 0.000, 17:21:52.813
18, 126180.82, 159731.53, -95216.66, -82921.13, -22775.40, -31441.68, -33061.36, -39095.61, -50981.22, -60348.48, -41222.07, -38961.39, -65777.20, -100836.43, -43403.75, -26284.91, 0.016, 0.888, -0.416, 17:21:52.813
19, 126190.44, 159735.95, -95203.41, -82914.80, -22768.20, -31430.42, -33049.33, -39087.93, -50981.22, -60348.48, -41222.07, -38961.39, -65777.20, -100836.43, -43403.75, -26284.91, 0.000, 0.000, 0.000, 17:21:52.814
20, 126190.44, 159735.95, -95203.41, -82914.80, -22768.20, -31430.42, -33049.33, -39087.93, -50982.79, -60352.82, -41224.39, -38965.82, -65777.41, -100835.65, -43406.59, -26279.82, 0.000, 0.000, 0.000, 17:21:52.814
21, 126188.80, 159735.89, -95203.95, -82918.02, -22773.01, -31435.18, -33050.50, -39092.26, -50982.79, -60352.82, -41224.39, -38965.82, -65777.41, -100835.65, -43406.59, -26279.82, 0.000, 0.000, 0.000, 17:21:52.815
22, 126188.80, 159735.89, -95203.95, -82918.02, -22773.01, -31435.18, -33050.50, -39092.26, -50978.05, -60340.61, -41245.74, -38962.06, -65778.03, -100836.12, -43407.20, -26286.79, 0.000, 0.000, 0.000, 17:21:52.816
23, 126191.51, 159738.44, -95204.48, -82914.33, -22761.41, -31439.16, -33044.71, -39087.37, -50978.05, -60340.61, -41245.74, -38962.06, -65778.03, -100836.12, -43407.20, -26286.79, 0.000, 0.000, 0.000, 17:21:52.816
24, 126191.51, 159738.44, -95204.48, -82914.33, -22761.41, -31439.16, -33044.71, -39087.37, -50984.75, -60348.86, -41240.51, -38965.15, -65782.01, -100839.69, -43412.88, -26289.70, 0.000, 0.000, 0.000, 17:21:52.817
25, 126181.88, 159733.08, -95214.43, -82924.16, -22764.92, -31447.65, -33054.38, -39095.39, -50984.75, -60348.86, -41240.51, -38965.15, -65782.01, -100839.69, -43412.88, -26289.70, 0.000, 0.000, 0.000, 17:21:52.817
26, 126181.88, 159733.08, -95214.43, -82924.16, -22764.92, -31447.65, -33054.38, -39095.39, -50988.29, -60351.16, -41238.52, -38971.76, -65780.51, -100841.14, -43414.24, -26309.61, 0.000, 0.000, 0.000, 17:21:52.817
27, 126197.95, 159743.86, -95207.37, -82915.13, -22763.17, -31451.68, -33051.68, -39089.94, -50988.29, -60351.16, -41238.52, -38971.76, -65780.51, -100841.14, -43414.24, -26309.61, 0.000, 0.000, 0.000, 17:21:52.818
28, 126197.95, 159743.86, -95207.37, -82915.13, -22763.17, -31451.68, -33051.68, -39089.94, -50983.37, -60355.39, -41247.86, -38964.14, -65771.48, -100829.14, -43408.27, -26310.17, 0.014, 0.896, -0.406, 17:21:52.818
29, 126203.71, 159742.03, -95208.37, -82916.54, -22748.76, -31439.45, -33051.97, -39086.58, -50983.37, -60355.39, -41247.86, -38964.14, -65771.48, -100829.14, -43408.27, -26310.17, 0.000, 0.000, 0.000, 17:21:52.819
30, 126203.71, 159742.03, -95208.37, -82916.54, -22748.76, -31439.45, -33051.97, -39086.58, -50995.50, -60358.07, -41252.18, -38977.48, -65782.59, -100838.06, -43422.04, -26309.88, 0.000, 0.000, 0.000, 17:21:52.820
31, 126203.84, 159733.09, -95217.51, -82921.91, -22773.59, -31445.77, -33064.78, -39090.74, -50995.50, -60358.07, -41252.18, -38977.48, -65782.59, -100838.06, -43422.04, -26309.88, 0.000, 0.000, 0.000, 17:21:52.820
32, 126203.84, 159733.09, -95217.51, -82921.91, -22773.59, -31445.77, -33064.78, -39090.74, -50995.84, -60369.71, -41255.80, -38993.94, -65791.35, -100843.80, -43430.02, -26321.35, 0.000, 0.000, 0.000, 17:21:52.821
33, 126206.59, 159736.42, -95218.79, -82920.19, -22766.12, -31453.66, -33069.89, -39100.46, -50995.84, -60369.71, -41255.80, -38993.94, -65791.35, -100843.80, -43430.02, -26321.35, 0.000, 0.000, 0.000, 17:21:52.821
34, 126206.59, 159736.42, -95218.79, -82920.19, -22766.12, -31453.66, -33069.89, -39100.46, -50988.08, -60367.52, -41251.95, -38997.69, -65785.85, -100838.46, -43422.17, -26325.48, 0.000, 0.000, 0.000, 17:21:52.822
35, 126201.32, 159741.94, -95218.00, -82919.94, -22760.33, -31460.73, -33066.16, -39114.01, -50988.08, -60367.52, -41251.95, -38997.69, -65785.85, -100838.46, -43422.17, -26325.48, 0.000, 0.000, 0.000, 17:21:52.822
36, 126201.32, 159741.94, -95218.00, -82919.94, -22760.33, -31460.73, -33066.16, -39114.01, -50982.38, -60357.15, -41250.28, -38989.00, -65781.98, -100834.57, -43413.64, -26316.05, 0.000, 0.000, 0.000, 17:21:52.823
37, 126199.58, 159743.84, -95210.67, -82917.03, -22751.71, -31458.27, -33054.90, -39110.77, -50982.38, -60357.15, -41250.28, -38989.00, -65781.98, -100834.57, -43413.64, -26316.05, 0.000, 0.000, 0.000, 17:21:52.824
38, 126199.58, 159743.84, -95210.67, -82917.03, -22751.71, -31458.27, -33054.90, -39110.77, -50995.55, -60368.13, -41255.55, -38994.25, -65787.73, -100841.73, -43410.66, -26322.11, 0.010, 0.886, -0.410, 17:21:52.824
39, 126185.95, 159733.67, -95214.52, -82925.38, -22764.98, -31471.30, -33068.06, -39160.68, -50995.55, -60368.13, -41255.55, -38994.25, -65787.73, -100841.73, -43410.66, -26322.11, 0.000, 0.000, 0.000, 17:21:52.825
40, 126185.95, 159733.67, -95214.52, -82925.38, -22764.98, -31471.30, -33068.06, -39160.68, -50995.44, -60374.59, -41259.38, -38999.12, -65791.22, -100843.78, -43414.51, -26320.61, 0.000, 0.000, 0.000, 17:21:52.826
41, 126177.96, 159727.59, -95218.98, -82926.78, -22752.71, -31473.04, -33069.56, -39182.47, -50995.44, -60374.59, -41259.38, -38999.12, -65791.22, -100843.78, -43414.51, -26320.61, 0.000, 0.000, 0.000, 17:21:52.826
42, 126177.96, 159727.59, -95218.98, -82926.78, -22752.71, -31473.04, -33069.56, -39182.47, -50997.56, -60374.34, -41260.87, -39002.81, -65791.06, -100846.20, -43419.25, -26329.15, 0.000, 0.000, 0.000, 17:21:52.827
43, 126180.16, 159727.19, -95218.16, -82926.27, -22759.53, -31473.24, -33074.88, -39172.70, -50997.56, -60374.34, -41260.87, -39002.81, -65791.06, -100846.20, -43419.25, -26329.15, 0.000, 0.000, 0.000, 17:21:52.827
44, 126180.16, 159727.19, -95218.16, -82926.27, -22759.53, -31473.24, -33074.88, -39172.70, -50999.37, -60381.74, -41264.45, -39010.36, -65792.80, -100847.16, -43418.80, -26313.63, 0.000, 0.000, 0.000, 17:21:52.827
45, 126171.97, 159718.11, -95227.52, -82935.81, -22785.90, -31486.54, -33086.53, -39181.80, -50999.37, -60381.74, -41264.45, -39010.36, -65792.80, -100847.16, -43418.80, -26313.63, 0.000, 0.000, 0.000, 17:21:52.828
46, 126171.97, 159718.11, -95227.52, -82935.81, -22785.90, -31486.54, -33086.53, -39181.80, -51007.48, -60377.07, -41274.11, -39006.74, -65802.26, -100856.55, -43429.32, -26329.86, 0.000, 0.000, 0.000, 17:21:52.828
47, 126181.31, 159726.72, -95219.30, -82929.28, -22771.26, -31484.49, -33078.61, -39185.02, -51007.48, -60377.07, -41274.11, -39006.74, -65802.26, -100856.55, -43429.32, -26329.86, 0.000, 0.000, 0.000, 17:21:52.829
48, 126181.31, 159726.72, -95219.30, -82929.28, -22771.26, -31484.49, -33078.61, -39185.02, -50996.60, -60363.84, -41267.96, -38987.99, -65790.59, -100845.91, -43411.27, -26341.08, 0.014, 0.890, -0.406, 17:21:52.829
49, 126181.90, 159732.06, -95215.74, -82928.57, -22757.92, -31484.22, -33065.47, -39172.32, -50996.60, -60363.84, -41267.96, -38987.99, -65790.59, -100845.91, -43411.27, -26341.08, 0.000, 0.000, 0.000, 17:21:52.829
50, 126181.90, 159732.06, -95215.74, -82928.57, -22757.92, -31484.22, -33065.47, -39172.32, -50998.30, -60368.02, -41278.64, -39000.66, -65792.76, -100848.23, -43409.12, -26340.66, 0.000, 0.000, 0.000, 17:21:52.830
51, 126185.36, 159740.14, -95210.96, -82925.98, -22752.40, -31478.79, -33060.46, -39180.04, -50998.30, -60368.02, -41278.64, -39000.66, -65792.76, -100848.23, -43409.12, -26340.66, 0.000, 0.000, 0.000, 17:21:52.830
52, 126185.36, 159740.14, -95210.96, -82925.98, -22752.40, -31478.79, -33060.46, -39180.04, -50991.70, -60366.29, -41277.99, -38996.82, -65785.45, -100837.61, -43404.72, -26356.19, 0.000, 0.000, 0.000, 17:21:52.831
53, 126186.01, 159742.61, -95211.03, -82924.61, -22772.47, -31482.61, -33075.04, -39196.78, -50991.70, -60366.29, -41277.99, -38996.82, -65785.45, -100837.61, -43404.72, -26356.19, 0.000, 0.000, 0.000, 17:21:52.831
54, 126186.01, 159742.61, -95211.03, -82924.61, -22772.47, -31482.61, -33075.04, -39196.78, -50991.17, -60363.77, -41276.74, -39002.56, -65790.68, -100839.45, -43421.41, -26387.82, 0.000, 0.000, 0.000, 17:21:52.832
55, 126187.10, 159744.72, -95213.27, -82922.48, -22754.34, -31487.44, -33075.39, -39201.52, -50991.17, -60363.77, -41276.74, -39002.56, -65790.68, -100839.45, -43421.41, -26387.82, 0.000, 0.000, 0.000, 17:21:52.832
56, 126187.10, 159744.72, -95213.27, -82922.48, -22754.34, -31487.44, -33075.39, -39201.52, -50988.95, -60363.59, -41279.42, -38992.35, -65788.40, -100833.90, -43419.52, -26395.11, 0.000, 0.000, 0.000, 17:21:52.833
57, 126178.07, 159737.94, -95218.96, -82925.51, -22771.76, -31487.53, -33080.04, -39197.00, -50988.95, -60363.59, -41279.42, -38992.35, -65788.40, -100833.90, -43419.52, -26395.11, 0.000, 0.000, 0.000, 17:21:52.834
58, 126178.07, 159737.94, -95218.96, -82925.51, -22771.76, -31487.53, -33080.04, -39197.00, -51006.37, -60378.81, -41290.18, -39010.90, -65804.20, -100845.59, -43425.84, -26395.53, 0.012, 0.898, -0.400, 17:21:52.834
59, 126177.47, 159736.41, -95219.95, -82926.58, -22769.70, -31494.14, -33092.61, -39206.28, -51006.37, -60378.81, -41290.18, -39010.90, -65804.20, -100845.59, -43425.84, -26395.53, 0.000, 0.000, 0.000, 17:21:52.835
60, 126177.47, 159736.41, -95219.95, -82926.58, -22769.70, -31494.14, -33092.61, -39206.28, -50990.45, -60364.39, -41280.30, -39002.09, -65795.76, -100835.13, -43431.70, -26396.02, 0.000, 0.000, 0.000, 17:21:52.836
61, 126177.91, 159744.88, -95217.09, -82922.89, -22767.73, -31499.13, -33089.72, -39204.98, -50990.45, -60364.39, -41280.30, -39002.09, -65795.76, -100835.13, -43431.70, -26396.02, 0.000, 0.000, 0.000, 17:21:52.836
62, 126177.91, 159744.88, -95217.09, -82922.89, -22767.73, -31499.13, -33089.72, -39204.98, -51002.90, -60379.70, -41294.64, -39015.08, -65810.17, -100843.91, -43424.27, -26388.22, 0.000, 0.000, 0.000, 17:21:52.837
63, 126156.93, 159738.44, -95228.24, -82927.07, -22762.72, -31504.58, -33098.51, -39217.95, -51002.90, -60379.70, -41294.64, -39015.08, -65810.17, -100843.91, -43424.27, -26388.22, 0.000, 0.000, 0.000, 17:21:52.837
64, 126156.93, 159738.44, -95228.24, -82927.07, -22762.72, -31504.58, -33098.51, -39217.95, -50991.26, -60372.30, -41291.96, -39010.16, -65804.18, -100840.27, -43422.13, -26397.97, 0.000, 0.000, 0.000, 17:21:52.838
65, 126151.50, 159749.08, -95214.38, -82918.71, -22763.75, -31493.54, -33094.13, -39214.35, -50991.26, -60372.30, -41291.96, -39010.16, -65804.18, -100840.27, -43422.13, -26397.97, 0.000, 0.000, 0.000, 17:21:52.838
66, 126151.50, 159749.08, -95214.38, -82918.71, -22763.75, -31493.54, -33094.13, -39214.35, -50985.67, -60374.68, -41296.23, -39015.55, -65796.42, -100831.98, -43416.07, -26400.47, 0.000, 0.000, 0.000, 17:21:52.838
67, 126129.48, 159747.27, -95211.03, -82914.53, -22747.59, -31500.94, -33096.14, -39213.47, -50985.67, -60374.68, -41296.23, -39015.55, -65796.42, -100831.98, -43416.07, -26400.47, 0.000, 0.000, 0.000, 17:21:52.839
68, 126129.48, 159747.27, -95211.03, -82914.53, -22747.59, -31500.94, -33096.14, -39213.47, -50990.18, -60366.07, -41301.20, -38999.50, -65799.38, -100832.98, -43407.98, -26396.54, 0.014, 0.892, -0.406, 17:21:52.840
69, 126108.94, 159735.66, -95219.23, -82920.84, -22768.60, -31512.23, -33107.89, -39219.87, -50990.18, -60366.07, -41301.20, -38999.50, -65799.38, -100832.98, -43407.98, -26396.54, 0.000, 0.000, 0.000, 17:21:52.840
70, 126108.94, 159735.66, -95219.23, -82920.84, -22768.60, -31512.23, -33107.89, -39219.87, -50999.44, -60374.74, -41310.54, -39011.21, -65808.12, -100840.65, -43418.46, -26420.50, 0.000, 0.000, 0.000, 17:21:52.841
71, 126100.06, 159731.55, -95220.24, -82922.48, -22768.25, -31516.49, -33113.06, -39227.40, -50999.44, -60374.74, -41310.54, -39011.21, -65808.12, -100840.65, -43418.46, -26420.50, 0.000, 0.000, 0.000, 17:21:52.841
72, 126100.06, 159731.55, -95220.24, -82922.48, -22768.25, -31516.49, -33113.06, -39227.40, -50990.90, -60369.04, -41303.88, -39009.78, -65799.06, -100835.66, -43413.59, -26430.94, 0.000, 0.000, 0.000, 17:21:52.841
73, 126101.23, 159738.30, -95210.80, -82911.83, -22745.58, -31512.65, -33099.58, -39225.70, -50990.90, -60369.04, -41303.88, -39009.78, -65799.06, -100835.66, -43413.59, -26430.94, 0.000, 0.000, 0.000, 17:21:52.842
74, 126101.23, 159738.30, -95210.80, -82911.83, -22745.58, -31512.65, -33099.58, -39225.70, -50984.98, -60365.36, -41297.39, -39006.16, -65795.45, -100829.92, -43404.00, -26433.11, 0.000, 0.000, 0.000, 17:21:52.842
75, 126088.33, 159728.22, -95214.02, -82919.27, -22749.72, -31510.10, -33101.48, -39221.25, -50984.98, -60365.36, -41297.39, -39006.16, -65795.45, -100829.92, -43404.00, -26433.11, 0.000, 0.000, 0.000, 17:21:52.843
76, 126088.33, 159728.22, -95214.02, -82919.27, -22749.72, -31510.10, -33101.48, -39221.25, -50992.62, -60374.92, -41306.56, -39008.73, -65804.16, -100834.46, -43407.00, -26425.93, 0.000, 0.000, 0.000, 17:21:52.843
77, 126079.46, 159723.34, -95216.44, -82921.17, -22762.14, -31511.53, -33106.82, -39215.13, -50992.62, -60374.92, -41306.56, -39008.73, -65804.16, -100834.46, -43407.00, -26425.93, 0.000, 0.000, 0.000, 17:21:52.844
78, 126079.46, 159723.34, -95216.44, -82921.17, -22762.14, -31511.53, -33106.82, -39215.13, -50992.80, -60374.92, -41312.15, -39010.30, -65805.50, -100832.36, -43410.77, -26416.97, 0.014, 0.890, -0.406, 17:21:52.844
79, 126073.27, 159723.06, -95217.87, -82923.72, -22762.55, -31516.09, -33104.16, -39216.83, -50992.80, -60374.92, -41312.15, -39010.30, -65805.50, -100832.36, -43410.77, -26416.97, 0.000, 0.000, 0.000, 17:21:52.845
80, 126073.27, 159723.06, -95217.87, -82923.72, -22762.55, -31516.09, -33104.16, -39216.83, -50997.27, -60379.26, -41321.98, -39014.93, -65808.83, -100835.31, -43411.58, -26402.24, 0.000, 0.000, 0.000, 17:21:52.845
81, 126066.18, 159721.09, -95220.20, -82927.98, -22761.03, -31520.79, -33115.74, -39221.99, -50997.27, -60379.26, -41321.98, -39014.93, -65808.83, -100835.31, -43411.58, -26402.24, 0.000, 0.000, 0.000, 17:21:52.846
82, 126066.18, 159721.09, -95220.20, -82927.98, -22761.03, -31520.79, -33115.74, -39221.99, -51002.05, -60390.21, -41330.03, -39021.36, -65812.59, -100841.63, -43424.48, -26400.49, 0.000, 0.000, 0.000, 17:21:52.846
83, 126055.30, 159714.58, -95224.69, -82933.40, -22755.17, -31531.25, -33126.58, -39239.34, -51002.05, -60390.21, -41330.03, -39021.36, -65812.59, -100841.63, -43424.48, -26400.49, 0.000, 0.000, 0.000, 17:21:52.847
84, 126055.30, 159714.58, -95224.69, -82933.40, -22755.17, -31531.25, -33126.58, -39239.34, -51000.04, -60382.01, -41321.76, -39015.68, -65807.00, -100838.33, -43422.11, -26405.41, 0.000, 0.000, 0.000, 17:21:52.847
85, 126060.88, 159726.16, -95212.10, -82922.31, -22755.62, -31513.63, -33117.64, -39229.77, -51000.04, -60382.01, -41321.76, -39015.68, -65807.00, -100838.33, -43422.11, -26405.41, 0.000, 0.000, 0.000, 17:21:52.848
86, 126060.88, 159726.16, -95212.10, -82922.31, -22755.62, -31513.63, -33117.64, -39229.77, -50993.18, -60373.63, -41315.01, -39019.08, -65800.20, -100828.41, -43408.70, -26409.77, 0.000, 0.000, 0.000, 17:21:52.848
87, 126047.27, 159722.08, -95216.28, -82926.09, -22758.75, -31517.57, -33124.28, -39231.60, -50993.18, -60373.63, -41315.01, -39019.08, -65800.20, -100828.41, -43408.70, -26409.77, 0.000, 0.000, 0.000, 17:21:52.849
88, 126047.27, 159722.08, -95216.28, -82926.09, -22758.75, -31517.57, -33124.28, -39231.60, -50994.79, -60375.75, -41314.85, -39015.30, -65804.77, -100832.49, -43408.67, -26412.38, 0.014, 0.894, -0.412, 17:21:52.850
89, 126043.47, 159727.39, -95212.55, -82922.38, -22751.93, -31522.02, -33112.48, -39234.06, -50994.79, -60375.75, -41314.85, -39015.30, -65804.77, -100832.49, -43408.67, -26412.38, 0.000, 0.000, 0.000, 17:21:52.851
90, 126043.47, 159727.39, -95212.55, -82922.38, -22751.93, -31522.02, -33112.48, -39234.06, -50992.13, -60368.66, -41316.19, -39011.17, -65800.31, -100829.70, -43404.47, -26420.12, 0.000, 0.000, 0.000, 17:21:52.851
91, 126036.38, 159729.72, -95204.16, -82920.23, -22744.84, -31513.86, -33107.71, -39221.95, -50992.13, -60368.66, -41316.19, -39011.17, -65800.31, -100829.70, -43404.47, -26420.12, 0.000, 0.000, 0.000, 17:21:52.852
92, 126036.38, 159729.72, -95204.16, -82920.23, -22744.84, -31513.86, -33107.71, -39221.95, -50991.30, -60367.14, -41318.16, -39013.79, -65799.06, -100826.39, -43396.65, -26413.41, 0.000, 0.000, 0.000, 17:21:52.852
93, 126016.18, 159719.17, -95210.18, -82931.14, -22749.87, -31524.59, -33127.96, -39240.16, -50991.30, -60367.14, -41318.16, -39013.79, -65799.06, -100826.39, -43396.65, -26413.41, 0.000, 0.000, 0.000, 17:21:52.852
94, 126016.18, 159719.17, -95210.18, -82931.14, -22749.87, -31524.59, -33127.96, -39240.16, -50999.23, -60373.73, -41330.41, -39013.14, -65805.84, -100834.17, -43407.00, -26420.61, 0.000, 0.000, 0.000, 17:21:52.853
95, 126014.66, 159721.11, -95204.41, -82930.49, -22753.74, -31515.87, -33129.15, -39244.12, -50999.23, -60373.73, -41330.41, -39013.14, -65805.84, -100834.17, -43407.00, -26420.61, 0.000, 0.000, 0.000, 17:21:52.853
96, 126014.66, 159721.11, -95204.41, -82930.49, -22753.74, -31515.87, -33129.15, -39244.12, -50994.79, -60373.65, -41330.30, -39009.13, -65797.45, -100827.53, -43396.92, -26422.09, 0.000, 0.000, 0.000, 17:21:52.854
97, 126018.57, 159726.67, -95198.69, -82923.88, -22747.62, -31515.67, -33117.68, -39239.29, -50994.79, -60373.65, -41330.30, -39009.13, -65797.45, -100827.53, -43396.92, -26422.09, 0.000, 0.000, 0.000, 17:21:52.854
98, 126018.57, 159726.67, -95198.69, -82923.88, -22747.62, -31515.67, -33117.68, -39239.29, -50993.29, -60370.11, -41317.62, -39014.32, -65796.63, -100826.73, -43401.83, -26421.55, 0.014, 0.892, -0.408, 17:21:52.855
99, 126014.64, 159728.63, -95202.52, -82924.74, -22739.08, -31510.91, -33117.77, -39226.13, -50993.29, -60370.11, -41317.62, -39014.32, -65796.63, -100826.73, -43401.83, -26421.55, 0.000, 0.000, 0.000, 17:21:52.855
100, 126014.64, 159728.63, -95202.52, -82924.74, -22739.08, -31510.91, -33117.77, -39226.13, -50989.78, -60361.35, -41323.77, -39009.31, -65795.71, -100825.19, -43404.96, -26413.17, 0.000, 0.000, 0.000, 17:21:52.856
101, 126016.74, 159732.22, -95200.01, -82917.21, -22744.13, -31506.91, -33121.95, -39231.71, -50989.78, -60361.35, -41323.77, -39009.31, -65795.71, -100825.19, -43404.96, -26413.17, 0.000, 0.000, 0.000, 17:21:52.856
102, 126016.74, 159732.22, -95200.01, -82917.21, -22744.13, -31506.91, -33121.95, -39231.71, -50996.93, -60369.15, -41319.50, -39006.59, -65797.77, -100829.41, -43412.85, -26419.13, 0.000, 0.000, 0.000, 17:21:52.857
103, 126011.17, 159728.59, -95205.91, -82919.16, -22738.65, -31516.27, -33121.13, -39235.65, -50996.93, -60369.15, -41319.50, -39006.59, -65797.77, -100829.41, -43412.85, -26419.13, 0.000, 0.000, 0.000, 17:21:52.857
104, 126011.17, 159728.59, -95205.91, -82919.16, -22738.65, -31516.27, -33121.13, -39235.65, -51002.48, -60373.16, -41312.32, -39019.44, -65799.02, -100832.52, -43408.58, -26430.65, 0.000, 0.000, 0.000, 17:21:52.858
105, 126012.20, 159734.72, -95206.05, -82914.11, -22733.36, -31538.18, -33122.36, -39253.51, -51002.48, -60373.16, -41312.32, -39019.44, -65799.02, -100832.52, -43408.58, -26430.65, 0.000, 0.000, 0.000, 17:21:52.858
106, 126012.20, 159734.72, -95206.05, -82914.11, -22733.36, -31538.18, -33122.36, -39253.51, -50996.24, -60376.15, -41312.30, -39011.68, -65794.55, -100826.32, -43409.12, -26450.18, 0.000, 0.000, 0.000, 17:21:52.859
107, 126014.57, 159741.19, -95201.46, -82906.10, -22738.92, -31542.13, -33116.41, -39232.54, -50996.24, -60376.15, -41312.30, -39011.68, -65794.55, -100826.32, -43409.12, -26450.18, 0.000, 0.000, 0.000, 17:21:52.860
108, 126014.57, 159741.19, -95201.46, -82906.10, -22738.92, -31542.13, -33116.41, -39232.54, -50993.16, -60379.39, -41309.98, -39019.28, -65790.73, -100822.59, -43405.66, -26450.74, 0.010, 0.898, -0.406, 17:21:52.860
109, 126014.55, 159741.31, -95196.10, -82903.35, -22746.50, -31517.95, -33121.64, -39233.66, -50993.16, -60379.39, -41309.98, -39019.28, -65790.73, -100822.59, -43405.66, -26450.74, 0.000, 0.000, 0.000, 17:21:52.860
110, 126014.55, 159741.31, -95196.10, -82903.35, -22746.50, -31517.95, -33121.64, -39233.66, -50994.83, -60367.54, -41304.05, -39011.17, -65791.89, -100826.57, -43414.82, -26448.84, 0.000, 0.000, 0.000, 17:21:52.861
111, 126020.36, 159746.13, -95189.04, -82898.68, -22734.67, -31520.83, -33119.03, -39227.15, -50994.83, -60367.54, -41304.05, -39011.17, -65791.89, -100826.57, -43414.82, -26448.84, 0.000, 0.000, 0.000, 17:21:52.861
112, 126020.36, 159746.13, -95189.04, -82898.68, -22734.67, -31520.83, -33119.03, -39227.15, -50991.55, -60357.46, -41296.93, -38998.18, -65785.07, -100820.06, -43404.92, -26449.51, 0.000, 0.000, 0.000, 17:21:52.862
113, 126017.70, 159747.28, -95190.40, -82901.16, -22708.25, -31522.35, -33115.85, -39232.63, -50991.55, -60357.46, -41296.93, -38998.18, -65785.07, -100820.06, -43404.92, -26449.51, 0.000, 0.000, 0.000, 17:21:52.862
114, 126017.70, 159747.28, -95190.40, -82901.16, -22708.25, -31522.35, -33115.85, -39232.63, -50997.49, -60371.01, -41313.58, -39010.32, -65797.99, -100833.55, -43413.10, -26457.89, 0.000, 0.000, 0.000, 17:21:52.863
115, 125998.19, 159742.77, -95202.07, -82909.03, -22744.93, -31539.61, -33121.08, -39252.30, -50997.49, -60371.01, -41313.58, -39010.32, -65797.99, -100833.55, -43413.10, -26457.89, 0.000, 0.000, 0.000, 17:21:52.863
116, 125998.19, 159742.77, -95202.07, -82909.03, -22744.93, -31539.61, -33121.08, -39252.30, -50996.49, -60377.43, -41321.69, -39010.74, -65802.91, -100837.26, -43403.46, -26467.13, 0.000, 0.000, 0.000, 17:21:52.864
117, 125988.27, 159740.38, -95206.09, -82909.97, -22740.02, -31545.91, -33123.21, -39251.29, -50996.49, -60377.43, -41321.69, -39010.74, -65802.91, -100837.26, -43403.46, -26467.13, 0.000, 0.000, 0.000, 17:21:52.864
118, 125988.27, 159740.38, -95206.09, -82909.97, -22740.02, -31545.91, -33123.21, -39251.29, -50994.34, -60373.65, -41318.47, -39014.21, -65801.34, -100836.09, -43394.97, -26461.67, 0.016, 0.888, -0.408, 17:21:52.865
119, 125987.88, 159738.86, -95201.58, -82907.91, -22731.16, -31539.76, -33117.95, -39253.37, -50994.34, -60373.65, -41318.47, -39014.21, -65801.34, -100836.09, -43394.97, -26461.67, 0.000, 0.000, 0.000, 17:21:52.865
120, 125987.88, 159738.86, -95201.58, -82907.91, -22731.16, -31539.76, -33117.95, -39253.37, -50998.68, -60377.18, -41317.80, -39018.16, -65807.00, -100842.87, -43384.76, -26453.13, 0.000, 0.000, 0.000, 17:21:52.866
121, 125979.99, 159733.77, -95200.66, -82907.98, -22724.68, -31537.06, -33119.43, -39251.11, -50998.68, -60377.18, -41317.80, -39018.16, -65807.00, -100842.87, -43384.76, -26453.13, 0.000, 0.000, 0.000, 17:21:53.284
122, 125979.99, 159733.77, -95200.66, -82907.98, -22724.68, -31537.06, -33119.43, -39251.11, -50986.72, -60371.07, -41302.29, -39005.92, -65798.15, -100833.32, -43331.67, -26452.80, 0.000, 0.000, 0.000, 17:21:53.285
123, 125976.59, 159739.95, -95190.49, -82899.96, -22725.35, -31511.87, -33113.06, -39250.09, -50986.72, -60371.07, -41302.29, -39005.92, -65798.15, -100833.32, -43331.67, -26452.80, 0.000, 0.000, 0.000, 17:21:53.285
124, 125976.59, 159739.95, -95190.49, -82899.96, -22725.35, -31511.87, -33113.06, -39250.09, -50985.36, -60376.11, -41302.47, -39010.27, -65798.52, -100829.50, -43321.55, -26450.61, 0.000, 0.000, 0.000, 17:21:53.286
125, 125953.75, 159733.98, -95200.75, -82909.21, -22744.02, -31520.96, -33121.15, -39262.43, -50985.36, -60376.11, -41302.47, -39010.27, -65798.52, -100829.50, -43321.55, -26450.61, 0.000, 0.000, 0.000, 17:21:53.286
126, 125953.75, 159733.98, -95200.75, -82909.21, -22744.02, -31520.96, -33121.15, -39262.43, -51004.55, -60391.33, -41315.70, -39027.73, -65814.04, -100843.67, -43333.26, -26461.96, 0.000, 0.000, 0.000, 17:21:53.287
127, 125939.80, 159724.16, -95204.59, -82909.26, -22737.67, -31533.84, -33125.98, -39269.73, -51004.55, -60391.33, -41315.70, -39027.73, -65814.04, -100843.67, -43333.26, -26461.96, 0.000, 0.000, 0.000, 17:21:53.287
128, 125939.80, 159724.16, -95204.59, -82909.26, -22737.67, -31533.84, -33125.98, -39269.73, -50989.60, -60373.76, -41302.76, -39017.34, -65794.33, -100826.23, -43308.16, -26475.91, 0.014, 0.892, -0.410, 17:21:53.288
129, 125947.29, 159733.45, -95192.03, -82897.48, -22728.28, -31520.34, -33116.59, -39248.52, -50989.60, -60373.76, -41302.76, -39017.34, -65794.33, -100826.23, -43308.16, -26475.91, 0.000, 0.000, 0.000, 17:21:53.289
130, 125947.29, 159733.45, -95192.03, -82897.48, -22728.28, -31520.34, -33116.59, -39248.52, -50992.39, -60383.14, -41312.13, -39012.29, -65798.39, -100826.34, -43291.57, -26477.61, 0.000, 0.000, 0.000, 17:21:53.290
131, 125947.54, 159733.67, -95194.11, -82896.72, -22734.27, -31522.53, -33116.63, -39258.63, -50992.39, -60383.14, -41312.13, -39012.29, -65798.39, -100826.34, -43291.57, -26477.61, 0.000, 0.000, 0.000, 17:21:53.290
132, 125947.54, 159733.67, -95194.11, -82896.72, -22734.27, -31522.53, -33116.63, -39258.63, -50987.73, -60376.44, -41300.21, -39013.36, -65794.80, -100821.85, -43288.02, -26485.90, 0.000, 0.000, 0.000, 17:21:53.291
133, 125939.88, 159727.91, -95201.10, -82908.18, -22732.30, -31523.04, -33129.69, -39266.58, -50987.73, -60376.44, -41300.21, -39013.36, -65794.80, -100821.85, -43288.02, -26485.90, 0.000, 0.000, 0.000, 17:21:53.292
134, 125939.88, 159727.91, -95201.10, -82908.18, -22732.30, -31523.04, -33129.69, -39266.58, -50998.81, -60387.84, -41305.48, -39026.91, -65807.55, -100835.16, -43297.79, -26508.54, 0.000, 0.000, 0.000, 17:21:53.292
135, 125938.33, 159719.19, -95205.73, -82911.18, -22749.25, -31537.48, -33124.41, -39272.57, -50998.81, -60387.84, -41305.48, -39026.91, -65807.55, -100835.16, -43297.79, -26508.54, 0.000, 0.000, 0.000, 17:21:53.293
136, 125938.33, 159719.19, -95205.73, -82911.18, -22749.25, -31537.48, -33124.41, -39272.57, -51000.58, -60381.98, -41306.25, -39023.39, -65808.25, -100838.64, -43295.91, -26513.59, 0.000, 0.000, 0.000, 17:21:53.294
137, 125945.44, 159721.45, -95197.22, -82904.52, -22737.36, -31520.36, -33114.87, -39259.65, -51000.58, -60381.98, -41306.25, -39023.39, -65808.25, -100838.64, -43295.91, -26513.59, 0.000, 0.000, 0.000, 17:21:53.294
138, 125945.44, 159721.45, -95197.22, -82904.52, -22737.36, -31520.36, -33114.87, -39259.65, -50993.58, -60381.69, -41296.79, -39010.81, -65801.59, -100831.58, -43270.96, -26510.55, 0.022, 0.892, -0.412, 17:21:53.295
139, 125935.49, 159712.42, -95200.99, -82907.94, -22729.18, -31525.82, -33115.14, -39251.92, -50993.58, -60381.69, -41296.79, -39010.81, -65801.59, -100831.58, -43270.96, -26510.55, 0.000, 0.000, 0.000, 17:21:53.295
140, 125935.49, 159712.42, -95200.99, -82907.94, -22729.18, -31525.82, -33115.14, -39251.92, -51001.80, -60389.07, -41303.03, -39021.36, -65807.52, -100839.18, -43273.24, -26499.31, 0.000, 0.000, 0.000, 17:21:53.295
141, 125941.46, 159717.94, -95196.45, -82903.91, -22711.18, -31526.69, -33107.76, -39251.50, -51001.80, -60389.07, -41303.03, -39021.36, -65807.52, -100839.18, -43273.24, -26499.31, 0.000, 0.000, 0.000, 17:21:53.296
142, 125941.46, 159717.94, -95196.45, -82903.91, -22711.18, -31526.69, -33107.76, -39251.50, -51002.41, -60390.70, -41291.65, -39022.19, -65806.66, -100837.88, -43261.04, -26483.78, 0.000, 0.000, 0.000, 17:21:53.296
143, 125925.88, 159701.38, -95209.95, -82915.00, -22727.32, -31535.74, -33114.02, -39260.61, -51002.41, -60390.70, -41291.65, -39022.19, -65806.66, -100837.88, -43261.04, -26483.78, 0.000, 0.000, 0.000, 17:21:53.296
144, 125925.88, 159701.38, -95209.95, -82915.00, -22727.32, -31535.74, -33114.02, -39260.61, -51011.15, -60403.00, -41302.22, -39034.35, -65818.48, -100849.05, -43269.15, -26475.48, 0.000, 0.000, 0.000, 17:21:53.297
145, 125941.34, 159705.83, -95205.33, -82905.43, -22719.23, -31536.16, -33109.21, -39252.28, -51011.15, -60403.00, -41302.22, -39034.35, -65818.48, -100849.05, -43269.15, -26475.48, 0.000, 0.000, 0.000, 17:21:53.297
146, 125941.34, 159705.83, -95205.33, -82905.43, -22719.23, -31536.16, -33109.21, -39252.28, -50999.66, -60392.04, -41286.49, -39016.96, -65809.14, -100842.66, -43268.48, -26484.92, 0.000, 0.000, 0.000, 17:21:53.298
147, 125940.66, 159698.41, -95207.34, -82910.91, -22721.24, -31533.33, -33107.83, -39258.47, -50999.66, -60392.04, -41286.49, -39016.96, -65809.14, -100842.66, -43268.48, -26484.92, 0.000, 0.000, 0.000, 17:21:53.298
148, 125940.66, 159698.41, -95207.34, -82910.91, -22721.24, -31533.33, -33107.83, -39258.47, -51007.15, -60396.80, -41290.49, -39023.84, -65812.85, -100848.74, -43266.70, -26491.42, 0.020, 0.892, -0.410, 17:21:53.298
149, 125944.32, 159701.28, -95198.27, -82909.19, -22712.03, -31528.74, -33110.13, -39251.61, -51007.15, -60396.80, -41290.49, -39023.84, -65812.85, -100848.74, -43266.70, -26491.42, 0.000, 0.000, 0.000, 17:21:53.299
150, 125944.32, 159701.28, -95198.27, -82909.19, -22712.03, -31528.74, -33110.13, -39251.61, -51008.07, -60394.34, -41298.76, -39022.30, -65809.34, -100848.19, -43259.90, -26491.82, 0.000, 0.000, 0.000, 17:21:53.299
151, 125938.40, 159700.59, -95201.40, -82915.54, -22715.76, -31534.35, -33106.22, -39254.13, -51008.07, -60394.34, -41298.76, -39022.30, -65809.34, -100848.19, -43259.90, -26491.82, 0.000, 0.000, 0.000, 17:21:53.300
152, 125938.40, 159700.59, -95201.40, -82915.54, -22715.76, -31534.35, -33106.22, -39254.13, -51010.34, -60398.48, -41299.83, -39033.03, -65816.56, -100855.09, -43253.53, -26486.19, 0.000, 0.000, 0.000, 17:21:53.300
153, 125940.66, 159703.14, -95202.16, -82915.96, -22705.82, -31535.72, -33107.22, -39251.47, -51010.34, -60398.48, -41299.83, -39033.03, -65816.56, -100855.09, -43253.53, -26486.19, 0.000, 0.000, 0.000, 17:21:53.301
154, 125940.66, 159703.14, -95202.16, -82915.96, -22705.82, -31535.72, -33107.22, -39251.47, -51006.10, -60395.33, -41292.95, -39015.75, -65810.51, -100849.46, -43252.01, -26482.66, 0.000, 0.000, 0.000, 17:21:53.301
155, 125948.25, 159710.97, -95195.88, -82910.30, -22704.70, -31533.08, -33103.16, -39254.31, -51006.10, -60395.33, -41292.95, -39015.75, -65810.51, -100849.46, -43252.01, -26482.66, 0.000, 0.000, 0.000, 17:21:53.301
156, 125948.25, 159710.97, -95195.88, -82910.30, -22704.70, -31533.08, -33103.16, -39254.31, -51002.19, -60384.58, -41292.50, -39011.06, -65803.04, -100839.65, -43264.62, -26478.72, 0.000, 0.000, 0.000, 17:21:53.302
157, 125953.82, 159716.50, -95193.20, -82907.60, -22706.78, -31531.69, -33103.83, -39250.38, -51002.19, -60384.58, -41292.50, -39011.06, -65803.04, -100839.65, -43264.62, -26478.72, 0.000, 0.000, 0.000, 17:21:53.302
158, 125953.82, 159716.50, -95193.20, -82907.60, -22706.78, -31531.69, -33103.83, -39250.38, -51012.16, -60387.46, -41296.05, -39008.02, -65806.64, -100839.94, -43277.34, -26467.06, 0.008, 0.896, -0.406, 17:21:53.302
159, 125959.70, 159723.27, -95194.45, -82905.91, -22707.67, -31534.26, -33106.73, -39249.41, -51012.16, -60387.46, -41296.05, -39008.02, -65806.64, -100839.94, -43277.34, -26467.06, 0.000, 0.000, 0.000, 17:21:53.303
160, 125959.70, 159723.27, -95194.45, -82905.91, -22707.67, -31534.26, -33106.73, -39249.41, -51002.72, -60388.36, -41284.21, -39020.36, -65798.99, -100833.41, -43285.18, -26468.64, 0.000, 0.000, 0.000, 17:21:53.303
161, 125964.68, 159731.84, -95194.16, -82901.84, -22691.78, -31536.79, -33112.27, -39242.13, -51002.72, -60388.36, -41284.21, -39020.36, -65798.99, -100833.41, -43285.18, -26468.64, 0.000, 0.000, 0.000, 17:21:53.304
162, 125964.68, 159731.84, -95194.16, -82901.84, -22691.78, -31536.79, -33112.27, -39242.13, -51008.31, -60390.90, -41287.65, -39022.37, -65807.24, -100841.16, -43285.09, -26452.21, 0.000, 0.000, 0.000, 17:21:53.304
163, 125956.95, 159722.83, -95204.95, -82909.50, -22712.46, -31549.53, -33126.38, -39252.68, -51008.31, -60390.90, -41287.65, -39022.37, -65807.24, -100841.16, -43285.09, -26452.21, 0.000, 0.000, 0.000, 17:21:53.304
164, 125956.95, 159722.83, -95204.95, -82909.50, -22712.46, -31549.53, -33126.38, -39252.68, -51012.87, -60397.14, -41289.82, -39025.00, -65808.59, -100848.07, -43288.22, -26454.83, 0.000, 0.000, 0.000, 17:21:53.305
165, 125965.76, 159729.58, -95197.64, -82903.11, -22695.22, -31541.39, -33115.70, -39248.93, -51012.87, -60397.14, -41289.82, -39025.00, -65808.59, -100848.07, -43288.22, -26454.83, 0.000, 0.000, 0.000, 17:21:53.305
166, 125965.76, 159729.58, -95197.64, -82903.11, -22695.22, -31541.39, -33115.70, -39248.93, -51012.51, -60391.89, -41272.96, -39011.95, -65802.26, -100843.69, -43263.45, -26448.26, 0.000, 0.000, 0.000, 17:21:53.306
167, 125971.90, 159734.09, -95195.95, -82901.70, -22699.36, -31543.27, -33111.00, -39246.93, -51012.51, -60391.89, -41272.96, -39011.95, -65802.26, -100843.69, -43263.45, -26448.26, 0.000, 0.000, 0.000, 17:21:53.306
168, 125971.90, 159734.09, -95195.95, -82901.70, -22699.36, -31543.27, -33111.00, -39246.93, -51009.72, -60388.64, -41265.86, -39009.63, -65799.60, -100841.44, -43241.88, -26442.58, 0.012, 0.898, -0.406, 17:21:53.307
169, 125980.35, 159735.31, -95194.34, -82899.55, -22684.20, -31540.70, -33108.77, -39245.30, -51009.72, -60388.64, -41265.86, -39009.63, -65799.60, -100841.44, -43241.88, -26442.58, 0.000, 0.000, 0.000, 17:21:53.307
170, 125980.35, 159735.31, -95194.34, -82899.55, -22684.20, -31540.70, -33108.77, -39245.30, -51006.32, -60380.29, -41267.64, -39005.38, -65797.05, -100837.95, -43237.97, -26454.34, 0.000, 0.000, 0.000, 17:21:53.308
171, 125989.72, 159742.70, -95184.90, -82893.41, -22693.55, -31526.44, -33107.11, -39237.28, -51006.32, -60380.29, -41267.64, -39005.38, -65797.05, -100837.95, -43237.97, -26454.34, 0.000, 0.000, 0.000, 17:21:53.308
172, 125989.72, 159742.70, -95184.90, -82893.41, -22693.55, -31526.44, -33107.11, -39237.28, -51005.61, -60388.89, -41257.70, -39008.62, -65793.43, -100834.44, -43221.99, -26438.09, 0.000, 0.000, 0.000, 17:21:53.308
173, 125989.70, 159739.47, -95188.27, -82903.65, -22706.62, -31536.01, -33113.82, -39245.19, -51005.61, -60388.89, -41257.70, -39008.62, -65793.43, -100834.44, -43221.99, -26438.09, 0.000, 0.000, 0.000, 17:21:53.309
174, 125989.70, 159739.47, -95188.27, -82903.65, -22706.62, -31536.01, -33113.82, -39245.19, -51011.06, -60391.19, -41257.39, -39009.45, -65797.90, -100839.20, -43227.78, -26436.08, 0.000, 0.000, 0.000, 17:21:53.309
175, 125997.16, 159737.88, -95189.46, -82901.99, -22692.54, -31551.01, -33111.56, -39252.25, -51011.06, -60391.19, -41257.39, -39009.45, -65797.90, -100839.20, -43227.78, -26436.08, 0.000, 0.000, 0.000, 17:21:53.310
176, 125997.16, 159737.88, -95189.46, -82901.99, -22692.54, -31551.01, -33111.56, -39252.25, -51012.38, -60401.77, -41254.37, -39015.64, -65803.02, -100840.59, -43230.04, -26450.07, 0.000, 0.000, 0.000, 17:21:53.310
177, 125990.25, 159731.89, -95201.27, -82908.97, -22702.91, -31567.97, -33121.95, -39263.09, -51012.38, -60401.77, -41254.37, -39015.64, -65803.02, -100840.59, -43230.04, -26450.07, 0.000, 0.000, 0.000, 17:21:53.311
178, 125990.25, 159731.89, -95201.27, -82908.97, -22702.91, -31567.97, -33121.95, -39263.09, -51018.84, -60414.30, -41265.95, -39029.30, -65810.22, -100844.27, -43242.04, -26449.40, 0.010, 0.892, -0.402, 17:21:53.311
179, 125994.50, 159734.48, -95203.09, -82909.59, -22697.88, -31572.53, -33117.28, -39261.38, -51018.84, -60414.30, -41265.95, -39029.30, -65810.22, -100844.27, -43242.04, -26449.40, 0.000, 0.000, 0.000, 17:21:53.311
180, 125994.50, 159734.48, -95203.09, -82909.59, -22697.88, -31572.53, -33117.28, -39261.38, -51020.98, -60413.90, -41260.96, -39024.29, -65808.83, -100842.15, -43246.71, -26442.45, 0.000, 0.000, 0.000, 17:21:53.312
181, 126004.83, 159737.55, -95197.10, -82902.91, -22696.14, -31572.29, -33110.11, -39252.50, -51020.98, -60413.90, -41260.96, -39024.29, -65808.83, -100842.15, -43246.71, -26442.45, 0.000, 0.000, 0.000, 17:21:53.312
182, 126004.83, 159737.55, -95197.10, -82902.91, -22696.14, -31572.29, -33110.11, -39252.50, -51019.38, -60408.79, -41260.09, -39018.21, -65804.80, -100837.26, -43238.13, -26441.22, 0.000, 0.000, 0.000, 17:21:53.313
183, 126014.23, 159742.91, -95191.70, -82895.91, -22687.33, -31564.66, -33100.81, -39244.19, -51019.38, -60408.79, -41260.09, -39018.21, -65804.80, -100837.26, -43238.13, -26441.22, 0.000, 0.000, 0.000, 17:21:53.313
184, 126014.23, 159742.91, -95191.70, -82895.91, -22687.33, -31564.66, -33100.81, -39244.19, -51016.85, -60407.73, -41258.37, -39015.33, -65802.28, -100832.91, -43234.06, -26438.29, 0.000, 0.000, 0.000, 17:21:53.313
185, 126014.28, 159740.27, -95198.89, -82899.06, -22689.63, -31577.69, -33118.80, -39255.47, -51016.85, -60407.73, -41258.37, -39015.33, -65802.28, -100832.91, -43234.06, -26438.29, 0.000, 0.000, 0.000, 17:21:53.313
186, 126014.28, 159740.27, -95198.89, -82899.06, -22689.63, -31577.69, -33118.80, -39255.47, -51017.41, -60418.02, -41249.99, -39035.35, -65812.54, -100839.09, -43250.98, -26424.10, 0.000, 0.000, 0.000, 17:21:53.314
187, 126022.23, 159739.63, -95196.44, -82894.88, -22695.33, -31579.01, -33123.79, -39256.25, -51017.41, -60418.02, -41249.99, -39035.35, -65812.54, -100839.09, -43250.98, -26424.10, 0.000, 0.000, 0.000, 17:21:53.314
188, 126022.23, 159739.63, -95196.44, -82894.88, -22695.33, -31579.01, -33123.79, -39256.25, -51015.55, -60416.18, -41244.29, -39024.04, -65805.26, -100831.71, -43251.96, -26389.52, 0.016, 0.894, -0.402, 17:21:53.315
189, 126038.73, 159747.73, -95188.12, -82888.54, -22699.54, -31571.39, -33113.66, -39246.36, -51015.55, -60416.18, -41244.29, -39024.04, -65805.26, -100831.71, -43251.96, -26389.52, 0.000, 0.000, 0.000, 17:21:53.315
190, 126038.73, 159747.73, -95188.12, -82888.54, -22699.54, -31571.39, -33113.66, -39246.36, -51008.27, -60401.30, -41226.11, -39022.77, -65794.91, -100822.10, -43260.04, -26376.26, 0.000, 0.000, 0.000, 17:21:53.315
191, 126054.20, 159755.20, -95187.63, -82886.39, -22691.02, -31581.00, -33110.64, -39246.73, -51008.27, -60401.30, -41226.11, -39022.77, -65794.91, -100822.10, -43260.04, -26376.26, 0.000, 0.000, 0.000, 17:21:53.316
192, 126054.20, 159755.20, -95187.63, -82886.39, -22691.02, -31581.00, -33110.64, -39246.73, -51014.19, -60405.97, -41221.40, -39023.71, -65793.79, -100821.98, -43260.88, -26346.51, 0.000, 0.000, 0.000, 17:21:53.316
193, 126072.17, 159758.59, -95185.46, -82887.75, -22698.04, -31581.36, -33113.68, -39242.18, -51014.19, -60405.97, -41221.40, -39023.71, -65793.79, -100821.98, -43260.88, -26346.51, 0.000, 0.000, 0.000, 17:21:53.317
194, 126072.17, 159758.59, -95185.46, -82887.75, -22698.04, -31581.36, -33113.68, -39242.18, -51021.39, -60407.26, -41232.11, -39018.86, -65798.41, -100823.71, -43275.23, -26326.17, 0.000, 0.000, 0.000, 17:21:53.317
195, 126080.13, 159752.73, -95193.73, -82894.73, -22709.37, -31595.66, -33125.55, -39254.58, -51021.39, -60407.26, -41232.11, -39018.86, -65798.41, -100823.71, -43275.23, -26326.17, 0.000, 0.000, 0.000, 17:21:53.318
196, 126080.13, 159752.73, -95193.73, -82894.73, -22709.37, -31595.66, -33125.55, -39254.58, -51026.95, -60413.14, -41247.15, -39031.35, -65805.84, -100829.54, -43291.41, -26332.14, 0.000, 0.000, 0.000, 17:21:53.318
197, 126097.74, 159754.55, -95191.98, -82890.63, -22700.95, -31590.50, -33124.32, -39270.25, -51026.95, -60413.14, -41247.15, -39031.35, -65805.84, -100829.54, -43291.41, -26332.14, 0.000, 0.000, 0.000, 17:21:53.318
198, 126097.74, 159754.55, -95191.98, -82890.63, -22700.95, -31590.50, -33124.32, -39270.25, -51019.89, -60406.57, -41232.73, -39029.77, -65800.36, -100824.11, -43294.59, -26340.32, 0.014, 0.882, -0.406, 17:21:53.319
199, 126098.91, 159751.31, -95194.49, -82895.45, -22693.88, -31594.79, -33137.11, -39271.63, -51019.89, -60406.57, -41232.73, -39029.77, -65800.36, -100824.11, -43294.59, -26340.32, 0.000, 0.000, 0.000, 17:21:53.319
200, 126098.91, 159751.31, -95194.49, -82895.45, -22693.88, -31594.79, -33137.11, -39271.63, -51016.69, -60415.76, -41237.31, -39035.98, -65806.48, -100828.20, -43293.09, -26331.92, 0.000, 0.000, 0.000, 17:21:53.320
201, 126095.62, 159757.88, -95184.03, -82883.84, -22678.75, -31586.34, -33130.34, -39264.26, -51016.69, -60415.76, -41237.31, -39035.98, -65806.48, -100828.20, -43293.09, -26331.92, 0.000, 0.000, 0.000, 17:21:53.320
202, 126095.62, 159757.88, -95184.03, -82883.84, -22678.75, -31586.34, -33130.34, -39264.26, -51007.08, -60398.48, -41210.25, -39018.81, -65798.52, -100818.77, -43280.96, -26318.71, 0.000, 0.000, 0.000, 17:21:53.320
203, 126083.59, 159754.44, -95188.92, -82889.70, -22694.20, -31591.35, -33131.43, -39274.43, -51007.08, -60398.48, -41210.25, -39018.81, -65798.52, -100818.77, -43280.96, -26318.71, 0.000, 0.000, 0.000, 17:21:53.321
204, 126083.59, 159754.44, -95188.92, -82889.70, -22694.20, -31591.35, -33131.43, -39274.43, -51010.97, -60396.87, -41220.62, -39018.41, -65799.63, -100821.48, -43296.82, -26289.25, 0.000, 0.000, 0.000, 17:21:53.321
205, 126098.88, 159761.86, -95182.22, -82881.98, -22703.85, -31585.76, -33135.88, -39267.81, -51010.97, -60396.87, -41220.62, -39018.41, -65799.63, -100821.48, -43296.82, -26289.25, 0.000, 0.000, 0.000, 17:21:53.322
206, 126098.88, 159761.86, -95182.22, -82881.98, -22703.85, -31585.76, -33135.88, -39267.81, -51005.92, -60392.49, -41211.70, -39008.98, -65790.99, -100813.45, -43344.52, -26263.12, 0.000, 0.000, 0.000, 17:21:53.322
207, 126103.76, 159760.34, -95184.43, -82885.67, -22687.73, -31584.11, -33135.61, -39259.30, -51005.92, -60392.49, -41211.70, -39008.98, -65790.99, -100813.45, -43344.52, -26263.12, 0.000, 0.000, 0.000, 17:21:53.322
208, 126103.76, 159760.34, -95184.43, -82885.67, -22687.73, -31584.11, -33135.61, -39259.30, -51019.64, -60408.49, -41209.69, -39026.97, -65805.70, -100827.45, -43338.85, -26234.67, 0.016, 0.884, -0.404, 17:21:53.325
209, 126104.96, 159758.34, -95193.73, -82888.18, -22686.84, -31596.34, -33120.88, -39259.21, -51019.64, -60408.49, -41209.69, -39026.97, -65805.70, -100827.45, -43338.85, -26234.67, 0.000, 0.000, 0.000, 17:21:53.325
210, 126104.96, 159758.34, -95193.73, -82888.18, -22686.84, -31596.34, -33120.88, -39259.21, -51027.42, -60422.24, -41234.45, -39032.31, -65819.18, -100836.67, -43330.75, -26227.96, 0.000, 0.000, 0.000, 17:21:53.326
211, 126092.87, 159744.27, -95210.07, -82899.35, -22695.51, -31607.64, -33133.55, -39269.80, -51027.42, -60422.24, -41234.45, -39032.31, -65819.18, -100836.67, -43330.75, -26227.96, 0.000, 0.000, 0.000, 17:21:53.326
212, 126092.87, 159744.27, -95210.07, -82899.35, -22695.51, -31607.64, -33133.55, -39269.80, -51025.25, -60429.57, -41240.91, -39039.22, -65822.98, -100838.62, -43339.14, -26227.38, 0.000, 0.000, 0.000, 17:21:53.326
213, 126096.58, 159745.91, -95207.12, -82897.88, -22693.55, -31604.63, -33131.74, -39271.37, -51025.25, -60429.57, -41240.91, -39039.22, -65822.98, -100838.62, -43339.14, -26227.38, 0.000, 0.000, 0.000, 17:21:53.327
214, 126096.58, 159745.91, -95207.12, -82897.88, -22693.55, -31604.63, -33131.74, -39271.37, -51022.73, -60423.45, -41228.71, -39045.84, -65827.77, -100839.91, -43346.00, -26220.94, 0.000, 0.000, 0.000, 17:21:53.327
215, 126091.55, 159740.27, -95210.56, -82900.80, -22675.69, -31609.66, -33135.86, -39276.15, -51022.73, -60423.45, -41228.71, -39045.84, -65827.77, -100839.91, -43346.00, -26220.94, 0.000, 0.000, 0.000, 17:21:53.327
216, 126091.55, 159740.27, -95210.56, -82900.80, -22675.69, -31609.66, -33135.86, -39276.15, -51027.62, -60422.35, -41227.21, -39046.06, -65829.33, -100841.88, -43346.31, -26199.06, 0.000, 0.000, 0.000, 17:21:53.328
217, 126085.83, 159737.14, -95214.18, -82907.42, -22684.74, -31606.33, -33135.90, -39283.88, -51027.62, -60422.35, -41227.21, -39046.06, -65829.33, -100841.88, -43346.31, -26199.06, 0.000, 0.000, 0.000, 17:21:53.328
218, 126085.83, 159737.14, -95214.18, -82907.42, -22684.74, -31606.33, -33135.90, -39283.88, -51030.04, -60429.35, -41237.09, -39053.88, -65830.96, -100845.66, -43362.43, -26191.39, 0.010, 0.882, -0.408, 17:21:53.329
219, 126084.06, 159736.52, -95218.00, -82913.59, -22706.33, -31621.93, -33160.15, -39299.86, -51030.04, -60429.35, -41237.09, -39053.88, -65830.96, -100845.66, -43362.43, -26191.39, 0.000, 0.000, 0.000, 17:21:53.329
220, 126084.06, 159736.52, -95218.00, -82913.59, -22706.33, -31621.93, -33160.15, -39299.86, -51034.46, -60437.04, -41231.10, -39050.29, -65833.40, -100849.03, -43376.87, -26208.29, 0.000, 0.000, 0.000, 17:21:53.329
221, 126093.25, 159745.09, -95214.25, -82910.98, -22691.33, -31605.21, -33151.05, -39276.86, -51034.46, -60437.04, -41231.10, -39050.29, -65833.40, -100849.03, -43376.87, -26208.29, 0.000, 0.000, 0.000, 17:21:53.330
222, 126093.25, 159745.09, -95214.25, -82910.98, -22691.33, -31605.21, -33151.05, -39276.86, -51027.20, -60424.30, -41236.35, -39042.59, -65820.38, -100834.55, -43374.95, -26197.58, 0.000, 0.000, 0.000, 17:21:53.330
223, 126115.29, 159763.31, -95201.02, -82900.00, -22697.21, -31598.35, -33132.48, -39276.80, -51027.20, -60424.30, -41236.35, -39042.59, -65820.38, -100834.55, -43374.95, -26197.58, 0.000, 0.000, 0.000, 17:21:53.331
224, 126115.29, 159763.31, -95201.02, -82900.00, -22697.21, -31598.35, -33132.48, -39276.80, -51028.90, -60425.39, -41226.61, -39044.34, -65817.75, -100834.39, -43390.55, -26171.37, 0.000, 0.000, 0.000, 17:21:53.331
225, 126105.90, 159757.25, -95212.30, -82916.34, -22695.69, -31611.78, -33136.17, -39279.39, -51028.90, -60425.39, -41226.61, -39044.34, -65817.75, -100834.39, -43390.55, -26171.37, 0.000, 0.000, 0.000, 17:21:53.331
226, 126105.90, 159757.25, -95212.30, -82916.34, -22695.69, -31611.78, -33136.17, -39279.39, -51043.74, -60441.84, -41236.00, -39055.07, -65826.42, -100848.27, -43405.90, -26172.57, 0.000, 0.000, 0.000, 17:21:53.332
227, 126115.02, 159765.91, -95206.91, -82915.23, -22683.96, -31606.73, -33140.10, -39279.43, -51043.74, -60441.84, -41236.00, -39055.07, -65826.42, -100848.27, -43405.90, -26172.57, 0.000, 0.000, 0.000, 17:21:53.332
228, 126115.02, 159765.91, -95206.91, -82915.23, -22683.96, -31606.73, -33140.10, -39279.43, -51036.50, -60435.96, -41229.40, -39047.36, -65820.07, -100843.13, -43398.66, -26160.50, 0.022, 0.896, -0.408, 17:21:53.333
229, 126117.91, 159763.14, -95204.64, -82921.39, -22683.27, -31611.49, -33143.75, -39283.73, -51036.50, -60435.96, -41229.40, -39047.36, -65820.07, -100843.13, -43398.66, -26160.50, 0.000, 0.000, 0.000, 17:21:53.333
230, 126117.91, 159763.14, -95204.64, -82921.39, -22683.27, -31611.49, -33143.75, -39283.73, -51045.66, -60436.70, -41242.14, -39058.55, -65825.66, -100850.82, -43402.59, -26155.88, 0.000, 0.000, 0.000, 17:21:53.333
231, 126126.27, 159767.98, -95210.80, -82918.33, -22693.35, -31627.45, -33148.53, -39284.87, -51045.66, -60436.70, -41242.14, -39058.55, -65825.66, -100850.82, -43402.59, -26155.88, 0.000, 0.000, 0.000, 17:21:53.334
232, 126126.27, 159767.98, -95210.80, -82918.33, -22693.35, -31627.45, -33148.53, -39284.87, -51039.85, -60433.75, -41232.51, -39045.10, -65825.15, -100847.76, -43394.91, -26153.62, 0.000, 0.000, 0.000, 17:21:53.334
233, 126129.98, 159765.44, -95211.21, -82916.99, -22698.84, -31613.81, -33143.50, -39275.99, -51039.85, -60433.75, -41232.51, -39045.10, -65825.15, -100847.76, -43394.91, -26153.62, 0.000, 0.000, 0.000, 17:21:53.335
234, 126129.98, 159765.44, -95211.21, -82916.99, -22698.84, -31613.81, -33143.50, -39275.99, -51037.48, -60438.51, -41225.15, -39055.61, -65824.55, -100845.41, -43396.74, -26154.60, 0.000, 0.000, 0.000, 17:21:53.335
235, 126133.26, 159768.13, -95208.84, -82914.77, -22689.43, -31623.94, -33145.67, -39280.15, -51037.48, -60438.51, -41225.15, -39055.61, -65824.55, -100845.41, -43396.74, -26154.60, 0.000, 0.000, 0.000, 17:21:53.336
236, 126133.26, 159768.13, -95208.84, -82914.77, -22689.43, -31623.94, -33145.67, -39280.15, -51025.54, -60431.27, -41209.53, -39041.34, -65811.85, -100834.39, -43392.42, -26190.10, 0.000, 0.000, 0.000, 17:21:53.336
237, 126157.06, 159792.69, -95192.77, -82897.90, -22668.02, -31607.09, -33130.40, -39261.73, -51025.54, -60431.27, -41209.53, -39041.34, -65811.85, -100834.39, -43392.42, -26190.10, 0.000, 0.000, 0.000, 17:21:53.337
238, 126157.06, 159792.69, -95192.77, -82897.90, -22668.02, -31607.09, -33130.40, -39261.73, -51019.13, -60413.79, -41208.08, -39040.92, -65802.23, -100825.01, -43382.07, -26214.95, 0.024, 0.894, -0.412, 17:21:53.337
239, 126153.22, 159788.19, -95195.63, -82907.09, -22678.50, -31616.88, -33138.29, -39265.44, -51019.13, -60413.79, -41208.08, -39040.92, -65802.23, -100825.01, -43382.07, -26214.95, 0.000, 0.000, 0.000, 17:21:53.337
240, 126153.22, 159788.19, -95195.63, -82907.09, -22678.50, -31616.88, -33138.29, -39265.44, -51029.88, -60426.24, -41239.41, -39048.83, -65812.98, -100833.77, -43395.80, -26219.85, 0.000, 0.000, 0.000, 17:21:53.338
241, 126150.94, 159782.95, -95202.42, -82912.30, -22692.16, -31622.04, -33140.28, -39274.96, -51029.88, -60426.24, -41239.41, -39048.83, -65812.98, -100833.77, -43395.80, -26219.85, 0.000, 0.000, 0.000, 17:21:53.765
242, 126150.94, 159782.95, -95202.42, -82912.30, -22692.16, -31622.04, -33140.28, -39274.96, -51025.52, -60427.45, -41233.31, -39049.46, -65811.52, -100832.31, -43394.23, -26227.38, 0.000, 0.000, 0.000, 17:21:53.765
243, 126158.56, 159784.64, -95197.22, -82911.89, -22688.61, -31619.40, -33136.37, -39268.95, -51025.52, -60427.45, -41233.31, -39049.46, -65811.52, -100832.31, -43394.23, -26227.38, 0.000, 0.000, 0.000, 17:21:53.766
244, 126158.56, 159784.64, -95197.22, -82911.89, -22688.61, -31619.40, -33136.37, -39268.95, -51028.74, -60419.80, -41220.88, -39041.21, -65811.52, -100834.23, -43383.30, -26219.53, 0.000, 0.000, 0.000, 17:21:53.766
245, 126165.04, 159789.91, -95194.20, -82914.84, -22687.15, -31627.56, -33138.74, -39282.95, -51028.74, -60419.80, -41220.88, -39041.21, -65811.52, -100834.23, -43383.30, -26219.53, 0.000, 0.000, 0.000, 17:21:53.766
246, 126165.04, 159789.91, -95194.20, -82914.84, -22687.15, -31627.56, -33138.74, -39282.95, -51020.36, -60423.78, -41220.41, -39045.10, -65815.02, -100838.35, -43394.32, -26224.52, 0.000, 0.000, 0.000, 17:21:53.767
247, 126166.90, 159790.63, -95194.58, -82916.32, -22686.95, -31631.45, -33139.43, -39285.74, -51020.36, -60423.78, -41220.41, -39045.10, -65815.02, -100838.35, -43394.32, -26224.52, 0.000, 0.000, 0.000, 17:21:53.767
248, 126166.90, 159790.63, -95194.58, -82916.32, -22686.95, -31631.45, -33139.43, -39285.74, -51030.21, -60416.05, -41221.40, -39035.46, -65798.86, -100825.09, -43380.80, -26229.23, 0.012, 0.888, -0.416, 17:21:53.768
249, 126181.54, 159805.89, -95179.54, -82894.80, -22660.94, -31618.33, -33122.47, -39265.40, -51030.21, -60416.05, -41221.40, -39035.46, -65798.86, -100825.09, -43380.80, -26229.23, 0.000, 0.000, 0.000, 17:21:53.768
250, 126181.54, 159805.89, -95179.54, -82894.80, -22660.94, -31618.33, -33122.47, -39265.40, -51023.84, -60406.66, -41213.04, -39033.05, -65796.23, -100822.14, -43373.76, -26210.79, 0.000, 0.000, 0.000, 17:21:53.769
251, 126180.04, 159806.08, -95184.38, -82896.07, -22672.58, -31623.58, -33130.96, -39272.17, -51023.84, -60406.66, -41213.04, -39033.05, -65796.23, -100822.14, -43373.76, -26210.79, 0.000, 0.000, 0.000, 17:21:53.769
252, 126180.04, 159806.08, -95184.38, -82896.07, -22672.58, -31623.58, -33130.96, -39272.17, -51035.60, -60416.61, -41205.89, -39024.02, -65804.70, -100829.97, -43368.29, -26212.78, 0.000, 0.000, 0.000, 17:21:53.769
253, 126178.03, 159803.61, -95186.30, -82895.95, -22678.41, -31632.30, -33141.42, -39281.11, -51035.60, -60416.61, -41205.89, -39024.02, -65804.70, -100829.97, -43368.29, -26212.78, 0.000, 0.000, 0.000, 17:21:53.770
254, 126178.03, 159803.61, -95186.30, -82895.95, -22678.41, -31632.30, -33141.42, -39281.11, -51020.58, -60410.10, -41195.43, -39019.02, -65796.38, -100824.07, -43366.92, -26215.98, 0.000, 0.000, 0.000, 17:21:53.770
255, 126184.60, 159810.67, -95180.03, -82891.04, -22673.54, -31626.33, -33133.62, -39277.22, -51020.58, -60410.10, -41195.43, -39019.02, -65796.38, -100824.07, -43366.92, -26215.98, 0.000, 0.000, 0.000, 17:21:53.770
0, 126184.60, 159810.67, -95180.03, -82891.04, -22673.54, -31626.33, -33133.62, -39277.22, -51016.09, -60406.88, -41212.75, -39024.33, -65793.72, -100821.74, -43371.82, -26209.83, 0.000, 0.000, 0.000, 17:21:53.771
1, 126185.47, 159814.39, -95179.63, -82887.84, -22662.43, -31627.79, -33150.81, -39285.89, -51016.09, -60406.88, -41212.75, -39024.33, -65793.72, -100821.74, -43371.82, -26209.83, 0.000, 0.000, 0.000, 17:21:53.771
2, 126185.47, 159814.39, -95179.63, -82887.84, -22662.43, -31627.79, -33150.81, -39285.89, -51018.10, -60412.29, -41218.56, -39034.04, -65794.75, -100825.38, -43386.07, -26192.67, 0.010, 0.892, -0.416, 17:21:53.771
3, 126186.21, 159812.91, -95176.12, -82885.01, -22668.22, -31627.16, -33151.04, -39284.82, -51018.10, -60412.29, -41218.56, -39034.04, -65794.75, -100825.38, -43386.07, -26192.67, 0.000, 0.000, 0.000, 17:21:53.772
4, 126186.21, 159812.91, -95176.12, -82885.01, -22668.22, -31627.16, -33151.04, -39284.82, -51005.58, -60405.79, -41196.43, -39023.89, -65786.23, -100817.25, -43384.69, -26192.55, 0.000, 0.000, 0.000, 17:21:53.772
5, 126192.83, 159823.03, -95174.62, -82878.32, -22669.14, -31631.54, -33150.18, -39290.52, -51005.58, -60405.79, -41196.43, -39023.89, -65786.23, -100817.25, -43384.69, -26192.55, 0.000, 0.000, 0.000, 17:21:53.772
6, 126192.83, 159823.03, -95174.62, -82878.32, -22669.14, -31631.54, -33150.18, -39290.52, -51001.14, -60399.71, -41187.60, -39024.18, -65788.67, -100815.95, -43389.76, -26182.05, 0.000, 0.000, 0.000, 17:21:53.773
7, 126198.70, 159830.92, -95174.06, -82873.54, -22670.46, -31625.06, -33150.16, -39291.64, -51001.14, -60399.71, -41187.60, -39024.18, -65788.67, -100815.95, -43389.76, -26182.05, 0.000, 0.000, 0.000, 17:21:53.773
8, 126198.70, 159830.92, -95174.06, -82873.54, -22670.46, -31625.06, -33150.16, -39291.64, -51005.23, -60410.39, -41203.14, -39022.34, -65797.14, -100821.23, -43398.57, -26175.95, 0.000, 0.000, 0.000, 17:21:53.773
9, 126180.09, 159816.89, -95194.49, -82889.99, -22678.55, -31644.01, -33166.84, -39314.57, -51005.23, -60410.39, -41203.14, -39022.34, -65797.14, -100821.23, -43398.57, -26175.95, 0.000, 0.000, 0.000, 17:21:53.774
10, 126180.09, 159816.89, -95194.49, -82889.99, -22678.55, -31644.01, -33166.84, -39314.57, -51017.32, -60431.40, -41216.64, -39046.69, -65816.81, -100841.12, -43418.53, -26183.44, 0.000, 0.000, 0.000, 17:21:53.774
11, 126188.04, 159826.88, -95189.91, -82883.46, -22663.91, -31643.81, -33161.45, -39315.78, -51017.32, -60431.40, -41216.64, -39046.69, -65816.81, -100841.12, -43418.53, -26183.44, 0.000, 0.000, 0.000, 17:21:53.775
12, 126188.04, 159826.88, -95189.91, -82883.46, -22663.91, -31643.81, -33161.45, -39315.78, -50991.43, -60414.50, -41186.42, -39030.10, -65796.25, -100822.86, -43398.82, -26180.51, 0.010, 0.886, -0.410, 17:21:53.775
13, 126186.91, 159832.58, -95187.07, -82882.95, -22661.54, -31642.94, -33164.98, -39316.61, -50991.43, -60414.50, -41186.42, -39030.10, -65796.25, -100822.86, -43398.82, -26180.51, 0.000, 0.000, 0.000, 17:21:53.776
14, 126186.91, 159832.58, -95187.07, -82882.95, -22661.54, -31642.94, -33164.98, -39316.61, -50996.69, -60418.91, -41206.49, -39033.52, -65802.39, -100830.15, -43400.52, -26173.47, 0.000, 0.000, 0.000, 17:21:53.776
15, 126191.69, 159834.92, -95182.04, -82878.39, -22665.05, -31641.55, -33167.51, -39323.96, -50996.69, -60418.91, -41206.49, -39033.52, -65802.39, -100830.15, -43400.52, -26173.47, 0.000, 0.000, 0.000, 17:21:53.776
16, 126191.69, 159834.92, -95182.04, -82878.39, -22665.05, -31641.55, -33167.51, -39323.96, -50999.71, -60420.74, -41221.51, -39022.99, -65802.04, -100827.42, -43396.07, -26137.30, 0.000, 0.000, 0.000, 17:21:53.778
17, 126188.58, 159830.64, -95182.24, -82880.91, -22662.37, -31644.32, -33168.96, -39325.39, -50999.71, -60420.74, -41221.51, -39022.99, -65802.04, -100827.42, -43396.07, -26137.30, 0.000, 0.000, 0.000, 17:21:53.779
18, 126188.58, 159830.64, -95182.24, -82880.91, -22662.37, -31644.32, -33168.96, -39325.39, -50985.31, -60412.02, -41210.83, -39015.28, -65791.27, -100816.91, -43396.56, -26122.84, 0.000, 0.000, 0.000, 17:21:53.779
19, 126203.42, 159846.11, -95169.74, -82863.57, -22654.03, -31632.14, -33151.44, -39315.76, -50985.31, -60412.02, -41210.83, -39015.28, -65791.27, -100816.91, -43396.56, -26122.84, 0.000, 0.000, 0.000, 17:21:53.780
20, 126203.42, 159846.11, -95169.74, -82863.57, -22654.03, -31632.14, -33151.44, -39315.76, -50987.48, -60404.11, -41200.28, -39001.94, -65784.91, -100811.05, -43383.89, -26094.81, 0.000, 0.000, 0.000, 17:21:53.780
21, 126194.39, 159833.94, -95174.35, -82873.83, -22646.92, -31626.06, -33170.50, -39320.81, -50987.48, -60404.11, -41200.28, -39001.94, -65784.91, -100811.05, -43383.89, -26094.81, 0.000, 0.000, 0.000, 17:21:53.780
22, 126194.39, 159833.94, -95174.35, -82873.83, -22646.92, -31626.06, -33170.50, -39320.81, -50999.84, -60424.74, -41211.09, -39019.89, -65801.90, -100830.13, -43407.45, -26083.37, 0.016, 0.892, -0.412, 17:21:53.781
23, 126185.47, 159820.78, -95189.80, -82887.30, -22679.02, -31634.29, -33186.42, -39331.29, -50999.84, -60424.74, -41211.09, -39019.89, -65801.90, -100830.13, -43407.45, -26083.37, 0.000, 0.000, 0.000, 17:21:53.781
24, 126185.47, 159820.78, -95189.80, -82887.30, -22679.02, -31634.29, -33186.42, -39331.29, -50997.58, -60426.06, -41239.73, -39035.02, -65801.92, -100825.88, -43411.27, -26076.10, 0.000, 0.000, 0.000, 17:21:53.781
25, 126198.10, 159831.98, -95181.48, -82876.45, -22650.83, -31637.64, -33176.20, -39325.75, -50997.58, -60426.06, -41239.73, -39035.02, -65801.92, -100825.88, -43411.27, -26076.10, 0.000, 0.000, 0.000, 17:21:53.782
26, 126198.10, 159831.98, -95181.48, -82876.45, -22650.83, -31637.64, -33176.20, -39325.75, -50997.80, -60442.60, -41229.18, -39051.20, -65804.90, -100827.51, -43405.75, -26076.33, 0.000, 0.000, 0.000, 17:21:53.782
27, 126181.92, 159818.86, -95195.25, -82890.41, -22667.13, -31652.97, -33187.89, -39351.16, -50997.80, -60442.60, -41229.18, -39051.20, -65804.90, -100827.51, -43405.75, -26076.33, 0.000, 0.000, 0.000, 17:21:53.783
28, 126181.92, 159818.86, -95195.25, -82890.41, -22667.13, -31652.97, -33187.89, -39351.16, -51002.81, -60439.32, -41244.51, -39040.54, -65808.79, -100834.62, -43412.09, -26088.89, 0.000, 0.000, 0.000, 17:21:53.783
29, 126201.81, 159835.47, -95183.47, -82876.84, -22657.47, -31642.94, -33174.52, -39339.96, -51002.81, -60439.32, -41244.51, -39040.54, -65808.79, -100834.62, -43412.09, -26088.89, 0.000, 0.000, 0.000, 17:21:53.783
30, 126201.81, 159835.47, -95183.47, -82876.84, -22657.47, -31642.94, -33174.52, -39339.96, -50983.46, -60426.98, -41214.65, -39024.85, -65791.24, -100817.74, -43392.36, -26088.35, 0.000, 0.000, 0.000, 17:21:53.785
31, 126212.41, 159845.92, -95173.77, -82873.09, -22661.85, -31637.96, -33169.94, -39334.84, -50983.46, -60426.98, -41214.65, -39024.85, -65791.24, -100817.74, -43392.36, -26088.35, 0.000, 0.000, 0.000, 17:21:53.786
32, 126212.41, 159845.92, -95173.77, -82873.09, -22661.85, -31637.96, -33169.94, -39334.84, -50989.98, -60425.46, -41218.49, -39017.23, -65790.84, -100820.36, -43395.33, -26080.80, 0.014, 0.892, -0.410, 17:21:53.786
33, 126207.63, 159837.09, -95180.74, -82880.34, -22664.18, -31651.79, -33173.45, -39341.10, -50989.98, -60425.46, -41218.49, -39017.23, -65790.84, -100820.36, -43395.33, -26080.80, 0.000, 0.000, 0.000, 17:21:53.786
34, 126207.63, 159837.09, -95180.74, -82880.34, -22664.18, -31651.79, -33173.45, -39341.10, -51004.29, -60439.47, -41250.61, -39027.11, -65797.12, -100826.91, -43402.06, -26088.84, 0.000, 0.000, 0.000, 17:21:53.787
35, 126212.98, 159837.13, -95180.70, -82880.94, -22651.26, -31645.73, -33181.12, -39350.00, -51004.29, -60439.47, -41250.61, -39027.11, -65797.12, -100826.91, -43402.06, -26088.84, 0.000, 0.000, 0.000, 17:21:53.787
36, 126212.98, 159837.13, -95180.70, -82880.94, -22651.26, -31645.73, -33181.12, -39350.00, -51003.75, -60442.54, -41253.21, -39036.20, -65800.43, -100828.67, -43415.56, -26102.52, 0.000, 0.000, 0.000, 17:21:53.787
37, 126228.55, 159843.80, -95176.16, -82871.33, -22647.30, -31645.02, -33180.16, -39336.50, -51003.75, -60442.54, -41253.21, -39036.20, -65800.43, -100828.67, -43415.56, -26102.52, 0.000, 0.000, 0.000, 17:21:53.788
38, 126228.55, 159843.80, -95176.16, -82871.33, -22647.30, -31645.02, -33180.16, -39336.50, -51001.98, -60440.88, -41250.07, -39024.51, -65792.02, -100820.22, -43408.88, -26094.32, 0.000, 0.000, 0.000, 17:21:53.788
39, 126248.19, 159857.91, -95165.99, -82863.10, -22659.59, -31633.13, -33179.98, -39332.52, -51001.98, -60440.88, -41250.07, -39024.51, -65792.02, -100820.22, -43408.88, -26094.32, 0.000, 0.000, 0.000, 17:21:53.789
40, 126248.19, 159857.91, -95165.99, -82863.10, -22659.59, -31633.13, -33179.98, -39332.52, -50991.28, -60433.53, -41226.59, -39018.23, -65783.46, -100813.83, -43404.34, -26100.89, 0.000, 0.000, 0.000, 17:21:53.789
41, 126250.72, 159858.38, -95170.87, -82864.22, -22642.12, -31652.33, -33175.71, -39338.09, -50991.28, -60433.53, -41226.59, -39018.23, -65783.46, -100813.83, -43404.34, -26100.89, 0.000, 0.000, 0.000, 17:21:53.789
42, 126250.72, 159858.38, -95170.87, -82864.22, -22642.12, -31652.33, -33175.71, -39338.09, -51002.61, -60446.58, -41247.48, -39032.94, -65792.09, -100820.78, -43409.50, -26104.91, 0.012, 0.890, -0.412, 17:21:53.790
43, 126243.38, 159849.34, -95181.50, -82873.67, -22652.33, -31658.74, -33192.96, -39345.17, -51002.61, -60446.58, -41247.48, -39032.94, -65792.09, -100820.78, -43409.50, -26104.91, 0.000, 0.000, 0.000, 17:21:53.790
44, 126243.38, 159849.34, -95181.50, -82873.67, -22652.33, -31658.74, -33192.96, -39345.17, -50998.68, -60456.01, -41268.94, -39027.93, -65793.61, -100823.17, -43406.97, -26117.34, 0.000, 0.000, 0.000, 17:21:53.790
45, 126265.07, 159861.03, -95170.44, -82870.05, -22654.81, -31649.38, -33189.97, -39336.39, -50998.68, -60456.01, -41268.94, -39027.93, -65793.61, -100823.17, -43406.97, -26117.34, 0.000, 0.000, 0.000, 17:21:53.791
46, 126265.07, 159861.03, -95170.44, -82870.05, -22654.81, -31649.38, -33189.97, -39336.39, -51005.02, -60449.64, -41266.97, -39033.39, -65791.58, -100826.70, -43401.90, -26119.38, 0.000, 0.000, 0.000, 17:21:53.791
47, 126273.16, 159856.11, -95174.69, -82872.80, -22638.20, -31657.49, -33184.32, -39334.04, -51005.02, -60449.64, -41266.97, -39033.39, -65791.58, -100826.70, -43401.90, -26119.38, 0.000, 0.000, 0.000, 17:21:53.792
48, 126273.16, 159856.11, -95174.69, -82872.80, -22638.20, -31657.49, -33184.32, -39334.04, -50997.07, -60453.24, -41248.33, -39021.61, -65787.59, -100818.91, -43387.89, -26125.57, 0.000, 0.000, 0.000, 17:21:53.792
49, 126290.66, 159866.44, -95171.65, -82865.67, -22638.23, -31652.84, -33172.43, -39327.16, -50997.07, -60453.24, -41248.33, -39021.61, -65787.59, -100818.91, -43387.89, -26125.57, 0.000, 0.000, 0.000, 17:21:53.792
50, 126290.66, 159866.44, -95171.65, -82865.67, -22638.23, -31652.84, -33172.43, -39327.16, -50997.38, -60457.93, -41251.84, -39013.18, -65786.66, -100815.59, -43395.04, -26098.14, 0.000, 0.000, 0.000, 17:21:53.793
51, 126303.20, 159868.17, -95175.65, -82867.75, -22639.70, -31670.72, -33179.53, -39343.90, -50997.38, -60457.93, -41251.84, -39013.18, -65786.66, -100815.59, -43395.04, -26098.14, 0.000, 0.000, 0.000, 17:21:53.793
52, 126303.20, 159868.17, -95175.65, -82867.75, -22639.70, -31670.72, -33179.53, -39343.90, -51002.16, -60476.93, -41264.58, -39030.28, -65793.72, -100821.09, -43416.43, -26091.77, 0.014, 0.890, -0.414, 17:21:53.793
53, 126308.50, 159867.03, -95180.07, -82874.34, -22641.47, -31681.63, -33193.10, -39342.22, -51002.16, -60476.93, -41264.58, -39030.28, -65793.72, -100821.09, -43416.43, -26091.77, 0.000, 0.000, 0.000, 17:21:53.794
54, 126308.50, 159867.03, -95180.07, -82874.34, -22641.47, -31681.63, -33193.10, -39342.22, -50998.63, -60480.84, -41269.63, -39026.50, -65788.73, -100814.27, -43435.03, -26091.66, 0.000, 0.000, 0.000, 17:21:53.794
55, 126326.89, 159881.69, -95165.84, -82857.18, -22631.81, -31692.04, -33181.70, -39330.87, -50998.63, -60480.84, -41269.63, -39026.50, -65788.73, -100814.27, -43435.03, -26091.66, 0.000, 0.000, 0.000, 17:21:53.795
56, 126326.89, 159881.69, -95165.84, -82857.18, -22631.81, -31692.04, -33181.70, -39330.87, -50996.29, -60495.00, -41273.25, -39037.23, -65786.73, -100810.90, -43434.11, -26087.03, 0.000, 0.000, 0.000, 17:21:53.795
57, 126316.84, 159875.78, -95179.45, -82868.58, -22648.04, -31707.49, -33190.37, -39342.09, -50996.29, -60495.00, -41273.25, -39037.23, -65786.73, -100810.90, -43434.11, -26087.03, 0.000, 0.000, 0.000, 17:21:53.795
58, 126316.84, 159875.78, -95179.45, -82868.58, -22648.04, -31707.49, -33190.37, -39342.09, -51000.04, -60493.96, -41269.59, -39031.26, -65788.00, -100812.48, -43431.92, -26090.21, 0.000, 0.000, 0.000, 17:21:53.796
59, 126329.89, 159882.94, -95174.15, -82865.00, -22631.79, -31711.34, -33190.28, -39343.92, -51000.04, -60493.96, -41269.59, -39031.26, -65788.00, -100812.48, -43431.92, -26090.21, 0.000, 0.000, 0.000, 17:21:53.796
60, 126329.89, 159882.94, -95174.15, -82865.00, -22631.79, -31711.34, -33190.28, -39343.92, -51013.21, -60504.83, -41263.78, -39041.50, -65800.59, -100822.79, -43447.50, -26099.79, 0.000, 0.000, 0.000, 17:21:53.796
61, 126326.34, 159868.08, -95184.56, -82874.41, -22647.81, -31715.47, -33203.79, -39353.57, -51013.21, -60504.83, -41263.78, -39041.50, -65800.59, -100822.79, -43447.50, -26099.79, 0.000, 0.000, 0.000, 17:21:53.797
62, 126326.34, 159868.08, -95184.56, -82874.41, -22647.81, -31715.47, -33203.79, -39353.57, -51008.85, -60500.05, -41260.43, -39038.71, -65793.84, -100819.48, -43449.80, -26092.91, 0.012, 0.884, -0.414, 17:21:53.797
63, 126348.77, 159878.33, -95171.63, -82863.97, -22626.87, -31709.03, -33195.96, -39341.35, -51008.85, -60500.05, -41260.43, -39038.71, -65793.84, -100819.48, -43449.80, -26092.91, 0.000, 0.000, 0.000, 17:21:53.797
64, 126348.77, 159878.33, -95171.63, -82863.97, -22626.87, -31709.03, -33195.96, -39341.35, -51000.89, -60505.07, -41255.73, -39026.79, -65790.95, -100814.09, -43450.25, -26084.39, 0.000, 0.000, 0.000, 17:21:53.798
65, 126347.32, 159875.56, -95181.95, -82868.80, -22642.47, -31703.96, -33199.45, -39338.93, -51000.89, -60505.07, -41255.73, -39026.79, -65790.95, -100814.09, -43450.25, -26084.39, 0.000, 0.000, 0.000, 17:21:53.798
66, 126347.32, 159875.56, -95181.95, -82868.80, -22642.47, -31703.96, -33199.45, -39338.93, -51011.08, -60514.06, -41280.09, -39035.69, -65799.11, -100823.55, -43458.54, -26088.33, 0.000, 0.000, 0.000, 17:21:53.799
67, 126366.41, 159888.33, -95175.40, -82863.59, -22627.05, -31707.74, -33198.44, -39350.65, -51011.08, -60514.06, -41280.09, -39035.69, -65799.11, -100823.55, -43458.54, -26088.33, 0.000, 0.000, 0.000, 17:21:53.799
68, 126366.41, 159888.33, -95175.40, -82863.59, -22627.05, -31707.74, -33198.44, -39350.65, -51007.04, -60511.91, -41278.64, -39030.52, -65796.38, -100817.74, -43462.14, -26080.60, 0.000, 0.000, 0.000, 17:21:53.800
69, 126369.07, 159890.09, -95180.97, -82872.82, -22639.28, -31722.38, -33209.98, -39358.29, -51007.04, -60511.91, -41278.64, -39030.52, -65796.38, -100817.74, -43462.14, -26080.60, 0.000, 0.000, 0.000, 17:21:53.800
70, 126369.07, 159890.09, -95180.97, -82872.82, -22639.28, -31722.38, -33209.98, -39358.29, -51010.03, -60522.80, -41269.57, -39043.33, -65808.49, -100829.43, -43482.66, -26090.99, 0.000, 0.000, 0.000, 17:21:53.800
71, 126369.94, 159882.20, -95191.74, -82880.31, -22650.99, -31727.38, -33216.25, -39368.71, -51010.03, -60522.80, -41269.57, -39043.33, -65808.49, -100829.43, -43482.66, -26090.99, 0.000, 0.000, 0.000, 17:21:53.801
72, 126369.94, 159882.20, -95191.74, -82880.31, -22650.99, -31727.38, -33216.25, -39368.71, -51004.60, -60530.51, -41276.25, -39042.82, -65808.12, -100827.64, -43492.31, -26104.42, 0.010, 0.892, -0.406, 17:21:53.801
73, 126403.34, 159909.94, -95174.46, -82857.65, -22617.95, -31710.13, -33203.47, -39352.61, -51004.60, -60530.51, -41276.25, -39042.82, -65808.12, -100827.64, -43492.31, -26104.42, 0.000, 0.000, 0.000, 17:21:53.802
74, 126403.34, 159909.94, -95174.46, -82857.65, -22617.95, -31710.13, -33203.47, -39352.61, -50983.59, -60504.88, -41256.56, -39027.95, -65786.93, -100806.70, -43485.18, -26103.93, 0.000, 0.000, 0.000, 17:21:53.802
75, 126411.43, 159905.20, -95177.81, -82864.22, -22627.94, -31713.37, -33201.77, -39358.00, -50983.59, -60504.88, -41256.56, -39027.95, -65786.93, -100806.70, -43485.18, -26103.93, 0.000, 0.000, 0.000, 17:21:53.802
76, 126411.43, 159905.20, -95177.81, -82864.22, -22627.94, -31713.37, -33201.77, -39358.00, -50999.93, -60519.74, -41261.81, -39037.95, -65797.16, -100817.16, -43491.06, -26109.85, 0.000, 0.000, 0.000, 17:21:53.803
77, 126424.86, 159904.98, -95175.70, -82863.93, -22645.74, -31719.98, -33202.40, -39357.46, -50999.93, -60519.74, -41261.81, -39037.95, -65797.16, -100817.16, -43491.06, -26109.85, 0.000, 0.000, 0.000, 17:21:53.803
78, 126424.86, 159904.98, -95175.70, -82863.93, -22645.74, -31719.98, -33202.40, -39357.46, -51007.30, -60524.14, -41264.43, -39029.09, -65804.38, -100825.52, -43502.35, -26076.55, 0.000, 0.000, 0.000, 17:21:53.803
79, 126421.77, 159898.92, -95190.24, -82877.16, -22640.15, -31730.63, -33216.93, -39376.38, -51007.30, -60524.14, -41264.43, -39029.09, -65804.38, -100825.52, -43502.35, -26076.55, 0.000, 0.000, 0.000, 17:21:53.804
80, 126421.77, 159898.92, -95190.24, -82877.16, -22640.15, -31730.63, -33216.93, -39376.38, -51013.45, -60545.29, -41280.21, -39052.48, -65813.30, -100834.82, -43522.15, -26059.92, 0.000, 0.000, 0.000, 17:21:53.804
81, 126443.01, 159910.23, -95177.28, -82868.15, -22633.42, -31720.03, -33208.23, -39368.53, -51013.45, -60545.29, -41280.21, -39052.48, -65813.30, -100834.82, -43522.15, -26059.92, 0.000, 0.000, 0.000, 17:21:53.804
82, 126443.01, 159910.23, -95177.28, -82868.15, -22633.42, -31720.03, -33208.23, -39368.53, -50993.43, -60535.18, -41270.57, -39043.18, -65796.90, -100817.61, -43519.58, -26064.81, 0.012, 0.890, -0.408, 17:21:53.805
83, 126454.63, 159911.44, -95183.38, -82869.27, -22633.46, -31723.63, -33203.58, -39372.98, -50993.43, -60535.18, -41270.57, -39043.18, -65796.90, -100817.61, -43519.58, -26064.81, 0.000, 0.000, 0.000, 17:21:53.805
84, 126454.63, 159911.44, -95183.38, -82869.27, -22633.46, -31723.63, -33203.58, -39372.98, -50994.61, -60523.61, -41265.25, -39042.66, -65796.52, -100818.81, -43527.43, -26068.23, 0.000, 0.000, 0.000, 17:21:53.805
85, 126485.97, 159924.94, -95172.00, -82862.23, -22639.23, -31710.46, -33197.82, -39388.82, -50994.61, -60523.61, -41265.25, -39042.66, -65796.52, -100818.81, -43527.43, -26068.23, 0.000, 0.000, 0.000, 17:21:53.806
86, 126485.97, 159924.94, -95172.00, -82862.23, -22639.23, -31710.46, -33197.82, -39388.82, -50994.25, -60524.23, -41249.85, -39028.89, -65793.20, -100815.41, -43532.73, -26070.11, 0.000, 0.000, 0.000, 17:21:53.806
87, 126501.44, 159922.39, -95167.17, -82864.35, -22630.09, -31715.40, -33193.05, -39386.23, -50994.25, -60524.23, -41249.85, -39028.89, -65793.20, -100815.41, -43532.73, -26070.11, 0.000, 0.000, 0.000, 17:21:53.806
88, 126501.44, 159922.39, -95167.17, -82864.35, -22630.09, -31715.40, -33193.05, -39386.23, -50987.48, -60517.35, -41249.45, -39025.16, -65789.54, -100812.80, -43540.01, -26071.59, 0.000, 0.000, 0.000, 17:21:53.807
89, 126515.56, 159932.16, -95163.20, -82858.07, -22610.76, -31707.98, -33195.89, -39379.21, -50987.48, -60517.35, -41249.45, -39025.16, -65789.54, -100812.80, -43540.01, -26071.59, 0.000, 0.000, 0.000, 17:21:53.807
90, 126515.56, 159932.16, -95163.20, -82858.07, -22610.76, -31707.98, -33195.89, -39379.21, -50995.39, -60529.44, -41276.88, -39039.27, -65798.80, -100815.70, -43549.02, -26059.79, 0.000, 0.000, 0.000, 17:21:53.807
91, 126509.82, 159923.08, -95177.32, -82862.09, -22632.79, -31727.63, -33203.38, -39392.60, -50995.39, -60529.44, -41276.88, -39039.27, -65798.80, -100815.70, -43549.02, -26059.79, 0.000, 0.000, 0.000, 17:21:53.809
92, 126509.82, 159923.08, -95177.32, -82862.09, -22632.79, -31727.63, -33203.38, -39392.60, -51000.00, -60539.05, -41270.41, -39047.78, -65802.53, -100818.57, -43556.13, -26060.35, 0.014, 0.894, -0.410, 17:21:53.810
93, 126517.58, 159922.33, -95179.78, -82867.70, -22632.84, -31731.23, -33206.82, -39402.05, -51000.00, -60539.05, -41270.41, -39047.78, -65802.53, -100818.57, -43556.13, -26060.35, 0.000, 0.000, 0.000, 17:21:53.810
94, 126517.58, 159922.33, -95179.78, -82867.70, -22632.84, -31731.23, -33206.82, -39402.05, -51002.99, -60546.22, -41280.41, -39045.70, -65808.16, -100823.15, -43573.32, -26066.13, 0.000, 0.000, 0.000, 17:21:53.811
95, 126531.27, 159923.59, -95176.81, -82865.58, -22636.17, -31722.11, -33208.37, -39398.73, -51002.99, -60546.22, -41280.41, -39045.70, -65808.16, -100823.15, -43573.32, -26066.13, 0.000, 0.000, 0.000, 17:21:53.811
96, 126531.27, 159923.59, -95176.81, -82865.58, -22636.17, -31722.11, -33208.37, -39398.73, -50998.52, -60533.71, -41261.45, -39036.11, -65799.96, -100816.49, -43570.45, -26059.74, 0.000, 0.000, 0.000, 17:21:53.811
97, 126539.75, 159927.06, -95175.34, -82865.71, -22641.40, -31727.36, -33208.41, -39401.65, -50998.52, -60533.71, -41261.45, -39036.11, -65799.96, -100816.49, -43570.45, -26059.74, 0.000, 0.000, 0.000, 17:21:53.812
98, 126539.75, 159927.06, -95175.34, -82865.71, -22641.40, -31727.36, -33208.41, -39401.65, -51004.42, -60539.77, -41274.84, -39039.76, -65804.45, -100818.01, -43578.43, -26055.83, 0.000, 0.000, 0.000, 17:21:53.812
99, 126547.95, 159930.23, -95174.91, -82863.88, -22637.82, -31727.74, -33209.24, -39405.66, -51004.42, -60539.77, -41274.84, -39039.76, -65804.45, -100818.01, -43578.43, -26055.83, 0.000, 0.000, 0.000, 17:21:53.813
100, 126547.95, 159930.23, -95174.91, -82863.88, -22637.82, -31727.74, -33209.24, -39405.66, -50997.31, -60536.17, -41255.15, -39035.33, -65795.40, -100812.02, -43586.10, -26074.14, 0.000, 0.000, 0.000, 17:21:53.813
101, 126564.02, 159936.42, -95163.58, -82861.04, -22615.90, -31716.95, -33210.22, -39402.86, -50997.31, -60536.17, -41255.15, -39035.33, -65795.40, -100812.02, -43586.10, -26074.14, 0.000, 0.000, 0.000, 17:21:53.813
102, 126564.02, 159936.42, -95163.58, -82861.04, -22615.90, -31716.95, -33210.22, -39402.86, -51001.07, -60531.18, -41245.38, -39026.46, -65793.01, -100813.12, -43580.20, -26070.36, 0.016, 0.894, -0.406, 17:21:53.814
103, 126575.42, 159945.69, -95164.78, -82860.66, -22629.06, -31720.63, -33212.93, -39410.82, -51001.07, -60531.18, -41245.38, -39026.46, -65793.01, -100813.12, -43580.20, -26070.36, 0.000, 0.000, 0.000, 17:21:53.815
104, 126575.42, 159945.69, -95164.78, -82860.66, -22629.06, -31720.63, -33212.93, -39410.82, -50995.88, -60534.47, -41278.93, -39037.05, -65792.49, -100810.63, -43592.16, -26081.51, 0.000, 0.000, 0.000, 17:21:53.815
105, 126589.50, 159956.50, -95162.46, -82851.09, -22626.67, -31718.85, -33206.89, -39408.74, -50995.88, -60534.47, -41278.93, -39037.05, -65792.49, -100810.63, -43592.16, -26081.51, 0.000, 0.000, 0.000, 17:21:54.244
106, 126589.50, 159956.50, -95162.46, -82851.09, -22626.67, -31718.85, -33206.89, -39408.74, -50980.77, -60516.77, -41274.30, -39022.14, -65782.66, -100798.74, -43587.75, -26078.05, 0.000, 0.000, 0.000, 17:21:54.244
107, 126605.22, 159963.66, -95159.73, -82846.18, -22607.76, -31722.38, -33193.25, -39399.78, -50980.77, -60516.77, -41274.30, -39022.14, -65782.66, -100798.74, -43587.75, -26078.05, 0.000, 0.000, 0.000, 17:21:54.244
108, 126605.22, 159963.66, -95159.73, -82846.18, -22607.76, -31722.38, -33193.25, -39399.78, -50989.47, -60527.02, -41265.12, -39031.82, -65790.73, -100804.91, -43599.09, -26074.99, 0.000, 0.000, 0.000, 17:21:54.244
109, 126596.90, 159951.92, -95171.13, -82862.43, -22622.65, -31725.01, -33216.77, -39407.04, -50989.47, -60527.02, -41265.12, -39031.82, -65790.73, -100804.91, -43599.09, -26074.99, 0.000, 0.000, 0.000, 17:21:54.245
110, 126596.90, 159951.92, -95171.13, -82862.43, -22622.65, -31725.01, -33216.77, -39407.04, -51004.94, -60541.38, -41266.62, -39044.81, -65806.73, -100824.70, -43626.09, -26078.79, 0.000, 0.000, 0.000, 17:21:54.245
111, 126591.60, 159946.11, -95182.87, -82877.34, -22642.29, -31741.85, -33222.38, -39427.27, -51004.94, -60541.38, -41266.62, -39044.81, -65806.73, -100824.70, -43626.09, -26078.79, 0.000, 0.000, 0.000, 17:21:54.245
112, 126591.60, 159946.11, -95182.87, -82877.34, -22642.29, -31741.85, -33222.38, -39427.27, -51007.15, -60547.41, -41267.96, -39044.59, -65807.42, -100825.79, -43632.84, -26084.04, 0.014, 0.890, -0.410, 17:21:54.245
113, 126601.82, 159950.64, -95178.75, -82865.67, -22627.68, -31745.11, -33222.43, -39421.93, -51007.15, -60547.41, -41267.96, -39044.59, -65807.42, -100825.79, -43632.84, -26084.04, 0.000, 0.000, 0.000, 17:21:54.246
114, 126601.82, 159950.64, -95178.75, -82865.67, -22627.68, -31745.11, -33222.43, -39421.93, -50999.13, -60553.60, -41291.45, -39042.62, -65807.65, -100821.23, -43643.48, -26082.00, 0.000, 0.000, 0.000, 17:21:54.246
115, 126584.01, 159948.58, -95178.17, -82863.68, -22632.06, -31744.64, -33225.91, -39431.45, -50999.13, -60553.60, -41291.45, -39042.62, -65807.65, -100821.23, -43643.48, -26082.00, 0.000, 0.000, 0.000, 17:21:54.246
116, 126584.01, 159948.58, -95178.17, -82863.68, -22632.06, -31744.64, -33225.91, -39431.45, -50996.35, -60549.71, -41261.88, -39050.42, -65809.14, -100822.46, -43643.05, -26075.79, 0.000, 0.000, 0.000, 17:21:54.246
117, 126583.67, 159956.61, -95180.79, -82859.66, -22617.55, -31750.05, -33217.35, -39434.89, -50996.35, -60549.71, -41261.88, -39050.42, -65809.14, -100822.46, -43643.05, -26075.79, 0.000, 0.000, 0.000, 17:21:54.246
118, 126583.67, 159956.61, -95180.79, -82859.66, -22617.55, -31750.05, -33217.35, -39434.89, -50985.11, -60539.56, -41269.45, -39036.09, -65798.73, -100810.86, -43644.08, -26080.37, 0.000, 0.000, 0.000, 17:21:54.246
119, 126594.71, 159969.89, -95173.86, -82853.31, -22618.22, -31738.60, -33213.33, -39433.77, -50985.11, -60539.56, -41269.45, -39036.09, -65798.73, -100810.86, -43644.08, -26080.37, 0.000, 0.000, 0.000, 17:21:54.247
120, 126594.71, 159969.89, -95173.86, -82853.31, -22618.22, -31738.60, -33213.33, -39433.77, -50988.66, -60543.12, -41253.54, -39033.57, -65798.88, -100811.95, -43653.11, -26072.79, 0.000, 0.000, 0.000, 17:21:54.247
121, 126604.59, 159976.23, -95172.07, -82856.53, -22623.38, -31743.16, -33219.54, -39427.13, -50988.66, -60543.12, -41253.54, -39033.57, -65798.88, -100811.95, -43653.11, -26072.79, 0.000, 0.000, 0.000, 17:21:54.247
122, 126604.59, 159976.23, -95172.07, -82856.53, -22623.38, -31743.16, -33219.54, -39427.13, -50991.97, -60549.96, -41267.02, -39043.60, -65801.21, -100817.79, -43656.98, -26067.05, 0.010, 0.886, -0.408, 17:21:54.247
123, 126592.59, 159957.17, -95185.21, -82875.08, -22639.03, -31748.53, -33236.64, -39442.89, -50991.97, -60549.96, -41267.02, -39043.60, -65801.21, -100817.79, -43656.98, -26067.05, 0.000, 0.000, 0.000, 17:21:54.247
124, 126592.59, 159957.17, -95185.21, -82875.08, -22639.03, -31748.53, -33236.64, -39442.89, -51002.45, -60564.64, -41282.00, -39051.69, -65811.13, -100829.74, -43677.34, -26073.13, 0.000, 0.000, 0.000, 17:21:54.248
125, 126614.52, 159976.77, -95175.11, -82863.37, -22624.64, -31746.85, -33220.03, -39432.90, -51002.45, -60564.64, -41282.00, -39051.69, -65811.13, -100829.74, -43677.34, -26073.13, 0.000, 0.000, 0.000, 17:21:54.248
126, 126614.52, 159976.77, -95175.11, -82863.37, -22624.64, -31746.85, -33220.03, -39432.90, -50985.58, -60544.93, -41264.56, -39031.93, -65794.75, -100812.06, -43647.14, -26062.02, 0.000, 0.000, 0.000, 17:21:54.248
127, 126632.06, 159990.08, -95161.86, -82856.38, -22618.15, -31736.82, -33207.32, -39423.76, -50985.58, -60544.93, -41264.56, -39031.93, -65794.75, -100812.06, -43647.14, -26062.02, 0.000, 0.000, 0.000, 17:21:54.248
128, 126632.06, 159990.08, -95161.86, -82856.38, -22618.15, -31736.82, -33207.32, -39423.76, -50979.30, -60534.45, -41272.90, -39028.58, -65789.61, -100809.00, -43648.89, -26072.86, 0.000, 0.000, 0.000, 17:21:54.248
129, 126643.68, 159996.98, -95162.86, -82856.69, -22610.33, -31742.27, -33216.52, -39428.03, -50979.30, -60534.45, -41272.90, -39028.58, -65789.61, -100809.00, -43648.89, -26072.86, 0.000, 0.000, 0.000, 17:21:54.249
130, 126643.68, 159996.98, -95162.86, -82856.69, -22610.33, -31742.27, -33216.52, -39428.03, -50985.55, -60550.18, -41271.29, -39025.86, -65796.83, -100810.55, -43656.02, -26079.21, 0.000, 0.000, 0.000, 17:21:54.249
131, 126628.13, 159986.25, -95176.36, -82867.08, -22628.21, -31752.89, -33237.47, -39437.71, -50985.55, -60550.18, -41271.29, -39025.86, -65796.83, -100810.55, -43656.02, -26079.21, 0.000, 0.000, 0.000, 17:21:54.249
132, 126628.13, 159986.25, -95176.36, -82867.08, -22628.21, -31752.89, -33237.47, -39437.71, -50996.17, -60555.63, -41268.02, -39040.00, -65803.47, -100817.36, -43664.89, -26092.96, 0.012, 0.890, -0.410, 17:21:54.249
133, 126630.88, 159994.55, -95171.65, -82861.40, -22619.45, -31754.70, -33232.66, -39441.91, -50996.17, -60555.63, -41268.02, -39040.00, -65803.47, -100817.36, -43664.89, -26092.96, 0.000, 0.000, 0.000, 17:21:54.250
134, 126630.88, 159994.55, -95171.65, -82861.40, -22619.45, -31754.70, -33232.66, -39441.91, -50983.84, -60547.27, -41261.41, -39037.66, -65787.62, -100803.48, -43661.63, -26104.62, 0.000, 0.000, 0.000, 17:21:54.250
135, 126649.65, 160010.70, -95156.54, -82850.83, -22612.79, -31750.72, -33222.56, -39440.16, -50983.84, -60547.27, -41261.41, -39037.66, -65787.62, -100803.48, -43661.63, -26104.62, 0.000, 0.000, 0.000, 17:21:54.251
136, 126649.65, 160010.70, -95156.54, -82850.83, -22612.79, -31750.72, -33222.56, -39440.16, -50977.27, -60539.65, -41265.99, -39028.58, -65782.34, -100798.36, -43650.86, -26101.20, 0.000, 0.000, 0.000, 17:21:54.251
137, 126646.48, 160004.91, -95162.37, -82860.15, -22619.45, -31755.14, -33230.11, -39434.93, -50977.27, -60539.65, -41265.99, -39028.58, -65782.34, -100798.36, -43650.86, -26101.20, 0.000, 0.000, 0.000, 17:21:54.251
138, 126646.48, 160004.91, -95162.37, -82860.15, -22619.45, -31755.14, -33230.11, -39434.93, -50984.77, -60544.13, -41251.98, -39027.22, -65787.95, -100806.01, -43654.30, -26108.65, 0.000, 0.000, 0.000, 17:21:54.252
139, 126657.74, 160014.91, -95156.40, -82853.60, -22614.11, -31749.09, -33225.89, -39439.99, -50984.77, -60544.13, -41251.98, -39027.22, -65787.95, -100806.01, -43654.30, -26108.65, 0.000, 0.000, 0.000, 17:21:54.252
140, 126657.74, 160014.91, -95156.40, -82853.60, -22614.11, -31749.09, -33225.89, -39439.99, -50984.95, -60542.94, -41260.00, -39029.79, -65785.74, -100804.33, -43650.34, -26103.75, 0.000, 0.000, 0.000, 17:21:54.252
141, 126662.39, 160013.14, -95158.86, -82859.55, -22621.08, -31759.35, -33240.95, -39444.77, -50984.95, -60542.94, -41260.00, -39029.79, -65785.74, -100804.33, -43650.34, -26103.75, 0.000, 0.000, 0.000, 17:21:54.252
142, 126662.39, 160013.14, -95158.86, -82859.55, -22621.08, -31759.35, -33240.95, -39444.77, -50975.92, -60533.48, -41261.01, -39020.76, -65777.80, -100798.18, -43655.70, -26098.21, 0.010, 0.894, -0.412, 17:21:54.252
143, 126679.20, 160026.77, -95146.14, -82850.11, -22608.81, -31746.03, -33227.63, -39433.82, -50975.92, -60533.48, -41261.01, -39020.76, -65777.80, -100798.18, -43655.70, -26098.21, 0.000, 0.000, 0.000, 17:21:54.253
144, 126679.20, 160026.77, -95146.14, -82850.11, -22608.81, -31746.03, -33227.63, -39433.82, -50983.77, -60541.51, -41244.27, -39013.18, -65783.02, -100803.03, -43669.47, -26103.48, 0.000, 0.000, 0.000, 17:21:54.253
145, 126666.98, 160018.09, -95156.09, -82854.36, -22593.54, -31750.72, -33233.20, -39436.66, -50983.77, -60541.51, -41244.27, -39013.18, -65783.02, -100803.03, -43669.47, -26103.48, 0.000, 0.000, 0.000, 17:21:54.253
146, 126666.98, 160018.09, -95156.09, -82854.36, -22593.54, -31750.72, -33233.20, -39436.66, -50987.14, -60545.62, -41262.13, -39023.42, -65787.30, -100804.42, -43676.00, -26101.72, 0.000, 0.000, 0.000, 17:21:54.253
147, 126676.32, 160027.64, -95152.24, -82847.77, -22597.99, -31746.74, -33229.33, -39429.95, -50987.14, -60545.62, -41262.13, -39023.42, -65787.30, -100804.42, -43676.00, -26101.72, 0.000, 0.000, 0.000, 17:21:54.253
148, 126676.32, 160027.64, -95152.24, -82847.77, -22597.99, -31746.74, -33229.33, -39429.95, -50983.50, -60543.90, -41256.11, -39026.03, -65787.80, -100806.23, -43678.95, -26096.15, 0.000, 0.000, 0.000, 17:21:54.254
149, 126668.92, 160015.81, -95166.59, -82863.48, -22624.44, -31760.06, -33248.58, -39442.94, -50983.50, -60543.90, -41256.11, -39026.03, -65787.80, -100806.23, -43678.95, -26096.15, 0.000, 0.000, 0.000, 17:21:54.254
150, 126668.92, 160015.81, -95166.59, -82863.48, -22624.44, -31760.06, -33248.58, -39442.94, -50984.13, -60545.35, -41252.00, -39027.22, -65793.97, -100814.70, -43694.84, -26105.70, 0.000, 0.000, 0.000, 17:21:54.254
151, 126689.46, 160034.47, -95153.54, -82844.55, -22606.06, -31742.52, -33237.24, -39424.95, -50984.13, -60545.35, -41252.00, -39027.22, -65793.97, -100814.70, -43694.84, -26105.70, 0.000, 0.000, 0.000, 17:21:54.254
152, 126689.46, 160034.47, -95153.54, -82844.55, -22606.06, -31742.52, -33237.24, -39424.95, -50971.34, -60539.56, -41246.14, -39018.77, -65783.95, -100803.32, -43688.59, -26107.04, 0.012, 0.898, -0.412, 17:21:54.254
153, 126686.09, 160039.61, -95157.61, -82846.47, -22605.44, -31752.75, -33235.66, -39430.20, -50971.34, -60539.56, -41246.14, -39018.77, -65783.95, -100803.32, -43688.59, -26107.04, 0.000, 0.000, 0.000, 17:21:54.255
154, 126686.09, 160039.61, -95157.61, -82846.47, -22605.44, -31752.75, -33235.66, -39430.20, -50979.14, -60549.40, -41273.12, -39017.02, -65790.52, -100807.39, -43692.27, -26101.67, 0.000, 0.000, 0.000, 17:21:54.255
155, 126679.70, 160032.16, -95164.98, -82849.78, -22606.75, -31770.34, -33246.97, -39440.19, -50979.14, -60549.40, -41273.12, -39017.02, -65790.52, -100807.39, -43692.27, -26101.67, 0.000, 0.000, 0.000, 17:21:54.255
156, 126679.70, 160032.16, -95164.98, -82849.78, -22606.75, -31770.34, -33246.97, -39440.19, -50994.74, -60564.04, -41261.09, -39043.40, -65801.14, -100818.97, -43700.09, -26108.24, 0.000, 0.000, 0.000, 17:21:54.255
157, 126681.34, 160027.11, -95168.61, -82852.05, -22608.41, -31774.54, -33251.50, -39440.99, -50994.74, -60564.04, -41261.09, -39043.40, -65801.14, -100818.97, -43700.09, -26108.24, 0.000, 0.000, 0.000, 17:21:54.255
158, 126681.34, 160027.11, -95168.61, -82852.05, -22608.41, -31774.54, -33251.50, -39440.99, -50986.85, -60562.25, -41268.98, -39032.56, -65791.91, -100810.21, -43701.35, -26114.88, 0.000, 0.000, 0.000, 17:21:54.255
159, 126708.80, 160046.52, -95149.52, -82828.61, -22592.90, -31768.98, -33233.58, -39420.72, -50986.85, -60562.25, -41268.98, -39032.56, -65791.91, -100810.21, -43701.35, -26114.88, 0.000, 0.000, 0.000, 17:21:54.256
160, 126708.80, 160046.52, -95149.52, -82828.61, -22592.90, -31768.98, -33233.58, -39420.72, -50970.60, -60548.75, -41244.40, -39019.28, -65777.70, -100797.69, -43692.65, -26108.51, 0.000, 0.000, 0.000, 17:21:54.256
161, 126722.80, 160052.86, -95148.83, -82836.01, -22607.45, -31775.19, -33239.08, -39431.58, -50970.60, -60548.75, -41244.40, -39019.28, -65777.70, -100797.69, -43692.65, -26108.51, 0.000, 0.000, 0.000, 17:21:54.256
162, 126722.80, 160052.86, -95148.83, -82836.01, -22607.45, -31775.19, -33239.08, -39431.58, -50975.30, -60547.39, -41240.22, -39025.72, -65784.60, -100804.93, -43704.83, -26107.57, 0.014, 0.896, -0.408, 17:21:54.256
163, 126728.80, 160053.50, -95153.95, -82841.69, -22601.35, -31772.98, -33246.90, -39427.20, -50975.30, -60547.39, -41240.22, -39025.72, -65784.60, -100804.93, -43704.83, -26107.57, 0.000, 0.000, 0.000, 17:21:54.256
164, 126728.80, 160053.50, -95153.95, -82841.69, -22601.35, -31772.98, -33246.90, -39427.20, -50984.62, -60558.83, -41255.78, -39032.89, -65793.54, -100816.96, -43713.42, -26121.92, 0.000, 0.000, 0.000, 17:21:54.257
165, 126735.30, 160054.31, -95153.52, -82842.09, -22591.24, -31775.51, -33246.05, -39431.40, -50984.62, -60558.83, -41255.78, -39032.89, -65793.54, -100816.96, -43713.42, -26121.92, 0.000, 0.000, 0.000, 17:21:54.257
166, 126735.30, 160054.31, -95153.52, -82842.09, -22591.24, -31775.51, -33246.05, -39431.40, -50974.34, -60552.95, -41264.20, -39024.78, -65786.61, -100808.35, -43704.52, -26125.84, 0.000, 0.000, 0.000, 17:21:54.257
167, 126740.53, 160058.00, -95150.68, -82842.52, -22598.02, -31780.07, -33238.99, -39430.18, -50974.34, -60552.95, -41264.20, -39024.78, -65786.61, -100808.35, -43704.52, -26125.84, 0.000, 0.000, 0.000, 17:21:54.257
168, 126740.53, 160058.00, -95150.68, -82842.52, -22598.02, -31780.07, -33238.99, -39430.18, -50979.63, -60561.36, -41265.92, -39031.49, -65794.66, -100815.59, -43721.13, -26134.29, 0.000, 0.000, 0.000, 17:21:54.258
169, 126735.64, 160053.80, -95155.13, -82848.82, -22610.85, -31787.69, -33251.26, -39433.04, -50979.63, -60561.36, -41265.92, -39031.49, -65794.66, -100815.59, -43721.13, -26134.29, 0.000, 0.000, 0.000, 17:21:54.258
170, 126735.64, 160053.80, -95155.13, -82848.82, -22610.85, -31787.69, -33251.26, -39433.04, -50975.18, -60561.04, -41255.89, -39016.91, -65788.60, -100811.86, -43715.05, -26137.91, 0.000, 0.000, 0.000, 17:21:54.258
171, 126737.09, 160055.56, -95158.13, -82853.33, -22597.77, -31797.14, -33250.27, -39430.69, -50975.18, -60561.04, -41255.89, -39016.91, -65788.60, -100811.86, -43715.05, -26137.91, 0.000, 0.000, 0.000, 17:21:54.258
172, 126737.09, 160055.56, -95158.13, -82853.33, -22597.77, -31797.14, -33250.27, -39430.69, -50998.34, -60577.70, -41272.94, -39043.42, -65810.46, -100830.88, -43719.09, -26135.58, 0.020, 0.888, -0.412, 17:21:54.259
173, 126729.88, 160041.69, -95169.99, -82862.12, -22618.62, -31801.97, -33262.93, -39442.20, -50998.34, -60577.70, -41272.94, -39043.42, -65810.46, -100830.88, -43719.09, -26135.58, 0.000, 0.000, 0.000, 17:21:54.259
174, 126729.88, 160041.69, -95169.99, -82862.12, -22618.62, -31801.97, -33262.93, -39442.20, -50983.23, -60567.93, -41267.62, -39027.26, -65798.15, -100820.20, -43721.17, -26139.72, 0.000, 0.000, 0.000, 17:21:54.259
175, 126761.09, 160074.66, -95146.03, -82835.70, -22594.73, -31782.08, -33239.03, -39419.49, -50983.23, -60567.93, -41267.62, -39027.26, -65798.15, -100820.20, -43721.17, -26139.72, 0.000, 0.000, 0.000, 17:21:54.259
176, 126761.09, 160074.66, -95146.03, -82835.70, -22594.73, -31782.08, -33239.03, -39419.49, -50975.32, -60566.65, -41257.36, -39026.21, -65791.53, -100812.35, -43705.08, -26141.24, 0.000, 0.000, 0.000, 17:21:54.260
177, 126747.41, 160064.25, -95157.81, -82851.37, -22588.85, -31792.56, -33245.71, -39426.93, -50975.32, -60566.65, -41257.36, -39026.21, -65791.53, -100812.35, -43705.08, -26141.24, 0.000, 0.000, 0.000, 17:21:54.260
178, 126747.41, 160064.25, -95157.81, -82851.37, -22588.85, -31792.56, -33245.71, -39426.93, -50981.27, -60574.70, -41254.19, -39028.34, -65800.23, -100824.55, -43708.70, -26151.23, 0.000, 0.000, 0.000, 17:21:54.260
179, 126755.64, 160070.45, -95154.75, -82846.31, -22593.34, -31783.08, -33246.05, -39422.02, -50981.27, -60574.70, -41254.19, -39028.34, -65800.23, -100824.55, -43708.70, -26151.23, 0.000, 0.000, 0.000, 17:21:54.260
180, 126755.64, 160070.45, -95154.75, -82846.31, -22593.34, -31783.08, -33246.05, -39422.02, -50975.52, -60565.65, -41229.58, -39025.34, -65792.94, -100817.65, -43702.22, -26169.18, 0.000, 0.000, 0.000, 17:21:54.261
181, 126757.21, 160072.81, -95153.16, -82849.06, -22598.24, -31791.35, -33241.71, -39421.37, -50975.52, -60565.65, -41229.58, -39025.34, -65792.94, -100817.65, -43702.22, -26169.18, 0.000, 0.000, 0.000, 17:21:54.261
182, 126757.21, 160072.81, -95153.16, -82849.06, -22598.24, -31791.35, -33241.71, -39421.37, -50975.86, -60567.66, -41284.77, -39027.20, -65795.33, -100818.21, -43702.71, -26179.61, 0.016, 0.892, -0.412, 17:21:54.261
183, 126753.77, 160072.22, -95161.38, -82854.98, -22609.32, -31810.96, -33254.37, -39430.69, -50975.86, -60567.66, -41284.77, -39027.20, -65795.33, -100818.21, -43702.71, -26179.61, 0.000, 0.000, 0.000, 17:21:54.262
184, 126753.77, 160072.22, -95161.38, -82854.98, -22609.32, -31810.96, -33254.37, -39430.69, -50992.29, -60580.36, -41291.05, -39037.97, -65808.20, -100832.63, -43722.85, -26182.61, 0.000, 0.000, 0.000, 17:21:54.262
185, 126757.74, 160072.66, -95159.09, -82855.95, -22575.15, -31807.02, -33251.64, -39431.85, -50992.29, -60580.36, -41291.05, -39037.97, -65808.20, -100832.63, -43722.85, -26182.61, 0.000, 0.000, 0.000, 17:21:54.262
186, 126757.74, 160072.66, -95159.09, -82855.95, -22575.15, -31807.02, -33251.64, -39431.85, -50972.97, -60567.10, -41258.73, -39027.39, -65789.85, -100815.53, -43709.71, -26184.80, 0.000, 0.000, 0.000, 17:21:54.263
187, 126769.34, 160088.38, -95149.77, -82842.47, -22595.58, -31795.04, -33238.47, -39418.48, -50972.97, -60567.10, -41258.73, -39027.39, -65789.85, -100815.53, -43709.71, -26184.80, 0.000, 0.000, 0.000, 17:21:54.263
188, 126769.34, 160088.38, -95149.77, -82842.47, -22595.58, -31795.04, -33238.47, -39418.48, -50972.39, -60559.52, -41232.29, -39025.83, -65785.52, -100812.16, -43712.07, -26198.48, 0.000, 0.000, 0.000, 17:21:54.263
189, 126770.15, 160093.17, -95150.75, -82846.00, -22595.85, -31802.46, -33240.80, -39427.05, -50972.39, -60559.52, -41232.29, -39025.83, -65785.52, -100812.16, -43712.07, -26198.48, 0.000, 0.000, 0.000, 17:21:54.263
190, 126770.15, 160093.17, -95150.75, -82846.00, -22595.85, -31802.46, -33240.80, -39427.05, -50980.50, -60566.57, -41253.21, -39034.57, -65792.49, -100820.20, -43722.27, -26207.35, 0.000, 0.000, 0.000, 17:21:54.264
191, 126771.70, 160090.05, -95151.62, -82844.68, -22588.29, -31804.94, -33240.46, -39422.66, -50980.50, -60566.57, -41253.21, -39034.57, -65792.49, -100820.20, -43722.27, -26207.35, 0.000, 0.000, 0.000, 17:21:54.264
192, 126771.70, 160090.05, -95151.62, -82844.68, -22588.29, -31804.94, -33240.46, -39422.66, -50977.84, -60568.78, -41278.89, -39034.41, -65792.42, -100818.30, -43716.75, -26212.20, 0.014, 0.890, -0.412, 17:21:54.264
193, 126782.78, 160102.17, -95143.52, -82828.25, -22588.16, -31803.69, -33234.45, -39408.56, -50977.84, -60568.78, -41278.89, -39034.41, -65792.42, -100818.30, -43716.75, -26212.20, 0.000, 0.000, 0.000, 17:21:54.264
194, 126782.78, 160102.17, -95143.52, -82828.25, -22588.16, -31803.69, -33234.45, -39408.56, -50970.69, -60570.72, -41264.92, -39025.72, -65781.98, -100808.58, -43712.52, -26215.35, 0.000, 0.000, 0.000, 17:21:54.265
195, 126771.09, 160094.34, -95152.53, -82841.77, -22593.34, -31800.79, -33249.09, -39443.43, -50970.69, -60570.72, -41264.92, -39025.72, -65781.98, -100808.58, -43712.52, -26215.35, 0.000, 0.000, 0.000, 17:21:54.265
196, 126771.09, 160094.34, -95152.53, -82841.77, -22593.34, -31800.79, -33249.09, -39443.43, -50986.16, -60579.62, -41267.00, -39036.38, -65797.45, -100824.89, -43727.86, -26222.06, 0.000, 0.000, 0.000, 17:21:54.265
197, 126773.66, 160093.56, -95158.03, -82850.11, -22586.17, -31813.95, -33251.71, -39446.07, -50986.16, -60579.62, -41267.00, -39036.38, -65797.45, -100824.89, -43727.86, -26222.06, 0.000, 0.000, 0.000, 17:21:54.266
198, 126773.66, 160093.56, -95158.03, -82850.11, -22586.17, -31813.95, -33251.71, -39446.07, -50978.76, -60560.95, -41257.90, -39039.55, -65792.24, -100822.81, -43722.22, -26233.19, 0.000, 0.000, 0.000, 17:21:54.266
199, 126770.55, 160096.22, -95161.03, -82859.52, -22585.74, -31820.23, -33252.13, -39440.48, -50978.76, -60560.95, -41257.90, -39039.55, -65792.24, -100822.81, -43722.22, -26233.19, 0.000, 0.000, 0.000, 17:21:54.266
200, 126770.55, 160096.22, -95161.03, -82859.52, -22585.74, -31820.23, -33252.13, -39440.48, -50982.41, -60574.57, -41264.79, -39038.93, -65800.92, -100832.11, -43729.15, -26238.71, 0.000, 0.000, 0.000, 17:21:54.267
201, 126798.49, 160114.09, -95149.18, -82846.80, -22579.44, -31815.99, -33244.29, -39431.16, -50982.41, -60574.57, -41264.79, -39038.93, -65800.92, -100832.11, -43729.15, -26238.71, 0.000, 0.000, 0.000, 17:21:54.268
202, 126798.49, 160114.09, -95149.18, -82846.80, -22579.44, -31815.99, -33244.29, -39431.16, -50962.96, -60557.54, -41260.22, -39018.81, -65782.37, -100809.07, -43719.16, -26237.97, 0.010, 0.892, -0.404, 17:21:54.268
203, 126806.00, 160114.92, -95151.64, -82845.60, -22577.43, -31813.64, -33247.10, -39434.29, -50962.96, -60557.54, -41260.22, -39018.81, -65782.37, -100809.07, -43719.16, -26237.97, 0.000, 0.000, 0.000, 17:21:54.268
204, 126806.00, 160114.92, -95151.64, -82845.60, -22577.43, -31813.64, -33247.10, -39434.29, -50977.60, -60570.18, -41274.60, -39028.22, -65795.53, -100819.55, -43737.60, -26245.44, 0.000, 0.000, 0.000, 17:21:54.269
205, 126805.11, 160110.56, -95160.31, -82851.92, -22580.49, -31819.38, -33248.84, -39432.43, -50977.60, -60570.18, -41274.60, -39028.22, -65795.53, -100819.55, -43737.60, -26245.44, 0.000, 0.000, 0.000, 17:21:54.269
206, 126805.11, 160110.56, -95160.31, -82851.92, -22580.49, -31819.38, -33248.84, -39432.43, -50974.58, -60573.47, -41267.64, -39038.86, -65796.11, -100819.20, -43744.60, -26256.86, 0.000, 0.000, 0.000, 17:21:54.269
207, 126806.91, 160111.67, -95160.60, -82849.13, -22589.28, -31821.64, -33256.22, -39436.84, -50974.58, -60573.47, -41267.64, -39038.86, -65796.11, -100819.20, -43744.60, -26256.86, 0.000, 0.000, 0.000, 17:21:54.270
208, 126806.91, 160111.67, -95160.60, -82849.13, -22589.28, -31821.64, -33256.22, -39436.84, -50973.57, -60570.36, -41267.02, -39035.58, -65797.84, -100821.95, -43753.72, -26264.33, 0.000, 0.000, 0.000, 17:21:54.270
209, 126807.95, 160114.61, -95160.56, -82851.99, -22586.41, -31823.16, -33257.29, -39442.40, -50973.57, -60570.36, -41267.02, -39035.58, -65797.84, -100821.95, -43753.72, -26264.33, 0.000, 0.000, 0.000, 17:21:54.270
210, 126807.95, 160114.61, -95160.56, -82851.99, -22586.41, -31823.16, -33257.29, -39442.40, -50966.82, -60562.16, -41256.76, -39026.93, -65789.85, -100816.71, -43754.90, -26275.66, 0.000, 0.000, 0.000, 17:21:54.271
211, 126825.09, 160125.81, -95145.00, -82837.44, -22585.30, -31811.74, -33243.28, -39431.45, -50966.82, -60562.16, -41256.76, -39026.93, -65789.85, -100816.71, -43754.90, -26275.66, 0.000, 0.000, 0.000, 17:21:54.271
212, 126825.09, 160125.81, -95145.00, -82837.44, -22585.30, -31811.74, -33243.28, -39431.45, -50964.19, -60562.03, -41258.75, -39015.57, -65784.53, -100810.95, -43749.87, -26271.05, 0.014, 0.890, -0.404, 17:21:54.272
213, 126816.82, 160120.89, -95152.27, -82840.75, -22577.99, -31811.56, -33244.08, -39438.38, -50964.19, -60562.03, -41258.75, -39015.57, -65784.53, -100810.95, -43749.87, -26271.05, 0.000, 0.000, 0.000, 17:21:54.272
214, 126816.82, 160120.89, -95152.27, -82840.75, -22577.99, -31811.56, -33244.08, -39438.38, -50961.51, -60562.90, -41275.96, -39029.52, -65786.05, -100810.99, -43757.96, -26269.15, 0.000, 0.000, 0.000, 17:21:54.273
215, 126820.51, 160128.88, -95150.86, -82840.73, -22574.26, -31814.47, -33251.59, -39438.18, -50961.51, -60562.90, -41275.96, -39029.52, -65786.05, -100810.99, -43757.96, -26269.15, 0.000, 0.000, 0.000, 17:21:54.273
216, 126820.51, 160128.88, -95150.86, -82840.73, -22574.26, -31814.47, -33251.59, -39438.18, -50968.32, -60571.55, -41255.39, -39025.94, -65788.45, -100813.88, -43757.34, -26268.80, 0.000, 0.000, 0.000, 17:21:54.273
217, 126823.13, 160133.30, -95151.82, -82839.97, -22576.69, -31824.59, -33242.34, -39436.63, -50968.32, -60571.55, -41255.39, -39025.94, -65788.45, -100813.88, -43757.34, -26268.80, 0.000, 0.000, 0.000, 17:21:54.274
218, 126823.13, 160133.30, -95151.82, -82839.97, -22576.69, -31824.59, -33242.34, -39436.63, -50961.86, -60562.68, -41247.82, -39027.62, -65782.48, -100809.54, -43754.57, -26282.16, 0.000, 0.000, 0.000, 17:21:54.274
219, 126838.41, 160142.73, -95145.49, -82835.18, -22561.45, -31817.53, -33223.83, -39430.42, -50961.86, -60562.68, -41247.82, -39027.62, -65782.48, -100809.54, -43754.57, -26282.16, 0.000, 0.000, 0.000, 17:21:54.274
220, 126838.41, 160142.73, -95145.49, -82835.18, -22561.45, -31817.53, -33223.83, -39430.42, -50956.50, -60561.82, -41260.49, -39019.37, -65780.51, -100808.35, -43750.99, -26281.63, 0.000, 0.000, 0.000, 17:21:54.274
221, 126833.78, 160139.78, -95153.90, -82844.73, -22594.15, -31827.14, -33239.28, -39436.41, -50956.50, -60561.82, -41260.49, -39019.37, -65780.51, -100808.35, -43750.99, -26281.63, 0.000, 0.000, 0.000, 17:21:54.275
222, 126833.78, 160139.78, -95153.90, -82844.73, -22594.15, -31827.14, -33239.28, -39436.41, -50967.21, -60576.55, -41259.33, -39036.34, -65789.20, -100819.22, -43767.66, -26279.82, 0.014, 0.894, -0.414, 17:21:54.275
223, 126837.48, 160143.78, -95150.77, -82843.50, -22579.62, -31821.71, -33236.02, -39442.51, -50967.21, -60576.55, -41259.33, -39036.34, -65789.20, -100819.22, -43767.66, -26279.82, 0.000, 0.000, 0.000, 17:21:54.275
224, 126837.48, 160143.78, -95150.77, -82843.50, -22579.62, -31821.71, -33236.02, -39442.51, -50965.06, -60566.65, -41259.35, -39031.71, -65780.98, -100812.29, -43762.39, -26273.11, 0.000, 0.000, 0.000, 17:21:54.275
225, 126841.12, 160147.09, -95153.54, -82845.87, -22563.55, -31820.12, -33236.75, -39435.98, -50965.06, -60566.65, -41259.35, -39031.71, -65780.98, -100812.29, -43762.39, -26273.11, 0.000, 0.000, 0.000, 17:21:54.725
226, 126841.12, 160147.09, -95153.54, -82845.87, -22563.55, -31820.12, -33236.75, -39435.98, -50964.86, -60567.14, -41257.12, -39031.40, -65787.73, -100818.84, -43766.91, -26288.69, 0.000, 0.000, 0.000, 17:21:54.725
227, 126842.75, 160141.77, -95156.73, -82850.90, -22578.93, -31833.11, -33240.82, -39443.12, -50964.86, -60567.14, -41257.12, -39031.40, -65787.73, -100818.84, -43766.91, -26288.69, 0.000, 0.000, 0.000, 17:21:54.725
228, 126842.75, 160141.77, -95156.73, -82850.90, -22578.93, -31833.11, -33240.82, -39443.12, -50965.71, -60561.00, -41267.09, -39029.30, -65777.20, -100808.89, -43766.23, -26290.03, 0.000, 0.000, 0.000, 17:21:54.726
229, 126854.04, 160156.44, -95141.65, -82837.41, -22580.74, -31819.54, -33226.70, -39429.53, -50965.71, -60561.00, -41267.09, -39029.30, -65777.20, -100808.89, -43766.23, -26290.03, 0.000, 0.000, 0.000, 17:21:54.726
230, 126854.04, 160156.44, -95141.65, -82837.41, -22580.74, -31819.54, -33226.70, -39429.53, -50971.95, -60571.44, -41273.03, -39029.03, -65785.70, -100813.43, -43763.42, -26277.49, 0.000, 0.000, 0.000, 17:21:54.726
231, 126843.87, 160146.83, -95151.69, -82847.97, -22590.88, -31825.91, -33245.40, -39439.34, -50971.95, -60571.44, -41273.03, -39029.03, -65785.70, -100813.43, -43763.42, -26277.49, 0.000, 0.000, 0.000, 17:21:54.726
232, 126843.87, 160146.83, -95151.69, -82847.97, -22590.88, -31825.91, -33245.40, -39439.34, -50974.36, -60577.52, -41280.27, -39027.39, -65785.77, -100815.48, -43763.95, -26278.65, 0.016, 0.898, -0.414, 17:21:54.726
233, 126849.79, 160146.94, -95148.18, -82844.52, -22594.06, -31822.38, -33245.20, -39435.79, -50974.36, -60577.52, -41280.27, -39027.39, -65785.77, -100815.48, -43763.95, -26278.65, 0.000, 0.000, 0.000, 17:21:54.727
234, 126849.79, 160146.94, -95148.18, -82844.52, -22594.06, -31822.38, -33245.20, -39435.79, -50966.16, -60571.15, -41284.05, -39026.08, -65778.30, -100808.45, -43760.89, -26274.74, 0.000, 0.000, 0.000, 17:21:54.727
235, 126860.36, 160156.33, -95142.25, -82834.04, -22572.73, -31816.39, -33235.05, -39429.46, -50966.16, -60571.15, -41284.05, -39026.08, -65778.30, -100808.45, -43760.89, -26274.74, 0.000, 0.000, 0.000, 17:21:54.727
236, 126860.36, 160156.33, -95142.25, -82834.04, -22572.73, -31816.39, -33235.05, -39429.46, -50962.87, -60566.99, -41255.02, -39017.02, -65774.90, -100804.71, -43749.58, -26274.03, 0.000, 0.000, 0.000, 17:21:54.727
237, 126860.74, 160155.92, -95141.16, -82842.20, -22568.27, -31814.89, -33228.19, -39422.46, -50962.87, -60566.99, -41255.02, -39017.02, -65774.90, -100804.71, -43749.58, -26274.03, 0.000, 0.000, 0.000, 17:21:54.728
238, 126860.74, 160155.92, -95141.16, -82842.20, -22568.27, -31814.89, -33228.19, -39422.46, -50970.56, -60573.45, -41257.03, -39018.46, -65780.98, -100811.04, -43754.21, -26281.85, 0.000, 0.000, 0.000, 17:21:54.728
239, 126856.54, 160153.89, -95147.73, -82844.23, -22576.54, -31827.32, -33231.07, -39433.59, -50970.56, -60573.45, -41257.03, -39018.46, -65780.98, -100811.04, -43754.21, -26281.85, 0.000, 0.000, 0.000, 17:21:54.728
240, 126856.54, 160153.89, -95147.73, -82844.23, -22576.54, -31827.32, -33231.07, -39433.59, -50977.06, -60587.89, -41279.40, -39039.69, -65793.30, -100821.85, -43767.95, -26294.57, 0.000, 0.000, 0.000, 17:21:54.728
241, 126851.42, 160149.44, -95158.52, -82851.72, -22571.60, -31834.02, -33241.09, -39440.30, -50977.06, -60587.89, -41279.40, -39039.69, -65793.30, -100821.85, -43767.95, -26294.57, 0.000, 0.000, 0.000, 17:21:54.729
242, 126851.42, 160149.44, -95158.52, -82851.72, -22571.60, -31834.02, -33241.09, -39440.30, -50967.16, -60586.70, -41284.07, -39032.85, -65789.02, -100818.34, -43771.75, -26308.72, 0.016, 0.896, -0.414, 17:21:54.729
243, 126866.02, 160162.89, -95147.98, -82843.95, -22557.67, -31815.58, -33234.14, -39425.23, -50967.16, -60586.70, -41284.07, -39032.85, -65789.02, -100818.34, -43771.75, -26308.72, 0.000, 0.000, 0.000, 17:21:54.729
244, 126866.02, 160162.89, -95147.98, -82843.95, -22557.67, -31815.58, -33234.14, -39425.23, -50964.41, -60574.66, -41283.27, -39023.24, -65780.47, -100808.95, -43773.25, -26308.16, 0.000, 0.000, 0.000, 17:21:54.730
245, 126866.46, 160161.36, -95151.30, -82844.81, -22573.67, -31819.05, -33232.30, -39426.46, -50964.41, -60574.66, -41283.27, -39023.24, -65780.47, -100808.95, -43773.25, -26308.16, 0.000, 0.000, 0.000, 17:21:54.731
246, 126866.46, 160161.36, -95151.30, -82844.81, -22573.67, -31819.05, -33232.30, -39426.46, -50977.13, -60586.05, -41266.17, -39027.11, -65789.07, -100816.55, -43791.96, -26312.72, 0.000, 0.000, 0.000, 17:21:54.731
247, 126863.52, 160158.92, -95161.43, -82857.65, -22586.28, -31841.31, -33251.75, -39448.10, -50977.13, -60586.05, -41266.17, -39027.11, -65789.07, -100816.55, -43791.96, -26312.72, 0.000, 0.000, 0.000, 17:21:54.731
248, 126863.52, 160158.92, -95161.43, -82857.65, -22586.28, -31841.31, -33251.75, -39448.10, -50969.80, -60580.40, -41277.01, -39028.16, -65784.69, -100811.91, -43800.99, -26321.48, 0.000, 0.000, 0.000, 17:21:54.732
249, 126878.53, 160179.02, -95149.07, -82845.98, -22579.29, -31836.08, -33241.00, -39434.11, -50969.80, -60580.40, -41277.01, -39028.16, -65784.69, -100811.91, -43800.99, -26321.48, 0.000, 0.000, 0.000, 17:21:54.732
250, 126878.53, 160179.02, -95149.07, -82845.98, -22579.29, -31836.08, -33241.00, -39434.11, -50968.19, -60581.52, -41285.46, -39036.79, -65779.15, -100808.42, -43804.32, -26309.70, 0.000, 0.000, 0.000, 17:21:54.732
251, 126885.77, 160184.86, -95147.22, -82846.41, -22567.55, -31834.13, -33246.36, -39451.72, -50968.19, -60581.52, -41285.46, -39036.79, -65779.15, -100808.42, -43804.32, -26309.70, 0.000, 0.000, 0.000, 17:21:54.733
252, 126885.77, 160184.86, -95147.22, -82846.41, -22567.55, -31834.13, -33246.36, -39451.72, -50977.87, -60579.62, -41295.23, -39042.86, -65784.02, -100814.26, -43816.91, -26326.42, 0.010, 0.896, -0.414, 17:21:54.733
253, 126875.80, 160172.81, -95156.09, -82854.45, -22582.53, -31828.55, -33250.63, -39451.72, -50977.87, -60579.62, -41295.23, -39042.86, -65784.02, -100814.26, -43816.91, -26326.42, 0.000, 0.000, 0.000, 17:21:54.734
254, 126875.80, 160172.81, -95156.09, -82854.45, -22582.53, -31828.55, -33250.63, -39451.72, -50976.46, -60585.83, -41306.78, -39024.42, -65783.44, -100813.54, -43818.67, -26328.28, 0.000, 0.000, 0.000, 17:21:54.734
255, 126890.87, 160183.86, -95145.16, -82845.80, -22572.89, -31803.16, -33238.38, -39440.32, -50976.46, -60585.83, -41306.78, -39024.42, -65783.44, -100813.54, -43818.67, -26328.28, 0.000, 0.000, 0.000, 17:21:54.734
0, 126890.87, 160183.86, -95145.16, -82845.80, -22572.89, -31803.16, -33238.38, -39440.32, -50962.58, -60568.57, -41290.84, -39013.89, -65772.17, -100804.20, -43815.07, -26332.21, 0.000, 0.000, 0.000, 17:21:54.735
1, 126898.78, 160197.03, -95139.52, -82841.73, -22566.37, -31801.03, -33241.22, -39443.05, -50962.58, -60568.57, -41290.84, -39013.89, -65772.17, -100804.20, -43815.07, -26332.21, 0.000, 0.000, 0.000, 17:21:54.735
2, 126898.78, 160197.03, -95139.52, -82841.73, -22566.37, -31801.03, -33241.22, -39443.05, -50970.40, -60571.44, -41281.95, -39009.67, -65777.56, -100809.85, -43835.10, -26334.36, 0.000, 0.000, 0.000, 17:21:54.736
3, 126902.88, 160201.14, -95137.38, -82843.14, -22558.01, -31795.60, -33244.73, -39442.87, -50970.40, -60571.44, -41281.95, -39009.67, -65777.56, -100809.85, -43835.10, -26334.36, 0.000, 0.000, 0.000, 17:21:54.736
4, 126902.88, 160201.14, -95137.38, -82843.14, -22558.01, -31795.60, -33244.73, -39442.87, -50967.56, -60563.70, -41281.32, -39005.63, -65775.64, -100809.09, -43846.63, -26337.57, 0.000, 0.000, 0.000, 17:21:54.736
5, 126894.29, 160198.17, -95149.45, -82853.66, -22562.77, -31797.79, -33257.18, -39458.43, -50967.56, -60563.70, -41281.32, -39005.63, -65775.64, -100809.09, -43846.63, -26337.57, 0.000, 0.000, 0.000, 17:21:54.737
6, 126894.29, 160198.17, -95149.45, -82853.66, -22562.77, -31797.79, -33257.18, -39458.43, -50975.48, -60583.73, -41295.83, -39033.61, -65790.48, -100819.93, -43874.66, -26347.19, 0.006, 0.892, -0.412, 17:21:54.737
7, 126895.77, 160198.88, -95148.71, -82849.69, -22564.82, -31788.81, -33254.86, -39456.93, -50975.48, -60583.73, -41295.83, -39033.61, -65790.48, -100819.93, -43874.66, -26347.19, 0.000, 0.000, 0.000, 17:21:54.737
8, 126895.77, 160198.88, -95148.71, -82849.69, -22564.82, -31788.81, -33254.86, -39456.93, -50965.69, -60578.25, -41299.59, -39018.93, -65779.55, -100808.09, -43877.10, -26353.51, 0.000, 0.000, 0.000, 17:21:54.737
9, 126902.13, 160205.09, -95144.55, -82842.16, -22562.59, -31783.15, -33243.68, -39446.80, -50965.69, -60578.25, -41299.59, -39018.93, -65779.55, -100808.09, -43877.10, -26353.51, 0.000, 0.000, 0.000, 17:21:54.738
10, 126902.13, 160205.09, -95144.55, -82842.16, -22562.59, -31783.15, -33243.68, -39446.80, -50966.65, -60576.40, -41278.46, -39020.18, -65778.90, -100810.08, -43874.19, -26360.80, 0.000, 0.000, 0.000, 17:21:54.738
11, 126914.56, 160215.91, -95140.13, -82841.69, -22555.79, -31786.57, -33244.20, -39448.32, -50966.65, -60576.40, -41278.46, -39020.18, -65778.90, -100810.08, -43874.19, -26360.80, 0.000, 0.000, 0.000, 17:21:54.738
12, 126914.56, 160215.91, -95140.13, -82841.69, -22555.79, -31786.57, -33244.20, -39448.32, -50968.26, -60583.60, -41307.79, -39020.58, -65784.18, -100810.92, -43886.60, -26369.11, 0.000, 0.000, 0.000, 17:21:54.739
13, 126907.26, 160204.33, -95151.84, -82850.18, -22560.11, -31798.75, -33261.14, -39463.59, -50968.26, -60583.60, -41307.79, -39020.58, -65784.18, -100810.92, -43886.60, -26369.11, 0.000, 0.000, 0.000, 17:21:54.739
14, 126907.26, 160204.33, -95151.84, -82850.18, -22560.11, -31798.75, -33261.14, -39463.59, -50976.41, -60593.63, -41306.83, -39032.54, -65797.05, -100822.57, -43903.54, -26372.02, 0.000, 0.000, 0.000, 17:21:54.739
15, 126906.31, 160202.80, -95158.88, -82856.66, -22569.76, -31814.13, -33263.57, -39474.03, -50976.41, -60593.63, -41306.83, -39032.54, -65797.05, -100822.57, -43903.54, -26372.02, 0.000, 0.000, 0.000, 17:21:54.740
16, 126906.31, 160202.80, -95158.88, -82856.66, -22569.76, -31814.13, -33263.57, -39474.03, -50970.58, -60594.55, -41319.12, -39026.88, -65791.24, -100816.69, -43908.28, -26382.19, 0.010, 0.888, -0.406, 17:21:54.740
17, 126917.20, 160211.67, -95151.38, -82849.33, -22573.72, -31807.16, -33256.18, -39470.45, -50970.58, -60594.55, -41319.12, -39026.88, -65791.24, -100816.69, -43908.28, -26382.19, 0.000, 0.000, 0.000, 17:21:54.740
18, 126917.20, 160211.67, -95151.38, -82849.33, -22573.72, -31807.16, -33256.18, -39470.45, -50974.02, -60595.27, -41300.39, -39026.57, -65790.86, -100815.98, -43911.57, -26390.55, 0.000, 0.000, 0.000, 17:21:54.741
19, 126926.27, 160218.11, -95156.49, -82851.95, -22570.79, -31808.52, -33258.72, -39472.62, -50974.02, -60595.27, -41300.39, -39026.57, -65790.86, -100815.98, -43911.57, -26390.55, 0.000, 0.000, 0.000, 17:21:54.741
20, 126926.27, 160218.11, -95156.49, -82851.95, -22570.79, -31808.52, -33258.72, -39472.62, -50963.68, -60593.83, -41291.79, -39030.79, -65789.05, -100813.52, -43914.02, -26403.53, 0.000, 0.000, 0.000, 17:21:54.741
21, 126940.23, 160221.44, -95156.42, -82851.01, -22559.93, -31821.15, -33261.32, -39484.40, -50963.68, -60593.83, -41291.79, -39030.79, -65789.05, -100813.52, -43914.02, -26403.53, 0.000, 0.000, 0.000, 17:21:54.742
22, 126940.23, 160221.44, -95156.42, -82851.01, -22559.93, -31821.15, -33261.32, -39484.40, -50964.25, -60596.05, -41304.57, -39018.14, -65793.43, -100816.49, -43927.14, -26410.20, 0.000, 0.000, 0.000, 17:21:54.742
23, 126953.91, 160226.38, -95148.16, -82849.13, -22558.07, -31801.37, -33263.44, -39469.02, -50964.25, -60596.05, -41304.57, -39018.14, -65793.43, -100816.49, -43927.14, -26410.20, 0.000, 0.000, 0.000, 17:21:54.742
24, 126953.91, 160226.38, -95148.16, -82849.13, -22558.07, -31801.37, -33263.44, -39469.02, -50961.08, -60591.98, -41301.20, -39023.33, -65787.59, -100813.23, -43926.45, -26402.62, 0.000, 0.000, 0.000, 17:21:54.742
25, 126968.09, 160231.64, -95144.65, -82843.30, -22566.14, -31807.56, -33257.45, -39466.65, -50961.08, -60591.98, -41301.20, -39023.33, -65787.59, -100813.23, -43926.45, -26402.62, 0.000, 0.000, 0.000, 17:21:54.743
26, 126968.09, 160231.64, -95144.65, -82843.30, -22566.14, -31807.56, -33257.45, -39466.65, -50961.77, -60583.80, -41313.31, -39010.81, -65777.59, -100804.95, -43914.29, -26390.90, 0.018, 0.890, -0.402, 17:21:54.743
27, 126975.98, 160240.95, -95145.23, -82850.27, -22560.98, -31815.16, -33266.32, -39478.50, -50961.77, -60583.80, -41313.31, -39010.81, -65777.59, -100804.95, -43914.29, -26390.90, 0.000, 0.000, 0.000, 17:21:54.743
28, 126975.98, 160240.95, -95145.23, -82850.27, -22560.98, -31815.16, -33266.32, -39478.50, -50967.54, -60604.76, -41296.97, -39021.56, -65789.50, -100815.91, -43931.88, -26391.33, 0.000, 0.000, 0.000, 17:21:54.743
29, 126984.23, 160243.34, -95148.45, -82856.26, -22573.34, -31818.51, -33266.68, -39468.48, -50967.54, -60604.76, -41296.97, -39021.56, -65789.50, -100815.91, -43931.88, -26391.33, 0.000, 0.000, 0.000, 17:21:54.743
30, 126984.23, 160243.34, -95148.45, -82856.26, -22573.34, -31818.51, -33266.68, -39468.48, -50961.26, -60586.46, -41295.90, -39015.08, -65781.12, -100809.45, -43925.85, -26392.29, 0.000, 0.000, 0.000, 17:21:54.743
31, 127007.28, 160258.19, -95140.98, -82847.79, -22565.70, -31805.39, -33262.19, -39481.11, -50961.26, -60586.46, -41295.90, -39015.08, -65781.12, -100809.45, -43925.85, -26392.29, 0.000, 0.000, 0.000, 17:21:54.744
32, 127007.28, 160258.19, -95140.98, -82847.79, -22565.70, -31805.39, -33262.19, -39481.11, -50971.77, -60601.05, -41323.95, -39030.21, -65792.83, -100816.29, -43934.36, -26390.46, 0.000, 0.000, 0.000, 17:21:54.744
33, 127001.67, 160247.58, -95151.38, -82856.91, -22578.12, -31818.76, -33272.14, -39495.75, -50971.77, -60601.05, -41323.95, -39030.21, -65792.83, -100816.29, -43934.36, -26390.46, 0.000, 0.000, 0.000, 17:21:54.744
34, 127001.67, 160247.58, -95151.38, -82856.91, -22578.12, -31818.76, -33272.14, -39495.75, -50962.58, -60587.04, -41319.41, -39017.85, -65778.68, -100804.95, -43942.48, -26392.27, 0.000, 0.000, 0.000, 17:21:54.744
35, 127026.10, 160264.06, -95134.70, -82848.68, -22564.02, -31817.28, -33262.93, -39486.72, -50962.58, -60587.04, -41319.41, -39017.85, -65778.68, -100804.95, -43942.48, -26392.27, 0.000, 0.000, 0.000, 17:21:54.744
36, 127026.10, 160264.06, -95134.70, -82848.68, -22564.02, -31817.28, -33262.93, -39486.72, -50961.86, -60581.05, -41312.73, -39017.43, -65775.15, -100802.41, -43934.86, -26407.54, 0.016, 0.888, -0.406, 17:21:54.745
37, 127027.95, 160247.73, -95144.80, -82856.04, -22575.17, -31823.36, -33272.58, -39495.80, -50961.86, -60581.05, -41312.73, -39017.43, -65775.15, -100802.41, -43934.86, -26407.54, 0.000, 0.000, 0.000, 17:21:54.745
38, 127027.95, 160247.73, -95144.80, -82856.04, -22575.17, -31823.36, -33272.58, -39495.80, -50968.30, -60589.32, -41320.24, -39019.44, -65786.50, -100810.41, -43938.41, -26428.10, 0.000, 0.000, 0.000, 17:21:54.745
39, 127043.45, 160259.77, -95137.63, -82846.58, -22580.54, -31811.20, -33260.69, -39487.39, -50968.30, -60589.32, -41320.24, -39019.44, -65786.50, -100810.41, -43938.41, -26428.10, 0.000, 0.000, 0.000, 17:21:54.745
40, 127043.45, 160259.77, -95137.63, -82846.58, -22580.54, -31811.20, -33260.69, -39487.39, -50962.11, -60579.59, -41292.39, -39017.38, -65775.82, -100801.78, -43928.26, -26437.11, 0.000, 0.000, 0.000, 17:21:54.745
41, 127051.42, 160268.73, -95131.16, -82843.20, -22560.69, -31806.15, -33257.59, -39481.74, -50962.11, -60579.59, -41292.39, -39017.38, -65775.82, -100801.78, -43928.26, -26437.11, 0.000, 0.000, 0.000, 17:21:54.745
42, 127051.42, 160268.73, -95131.16, -82843.20, -22560.69, -31806.15, -33257.59, -39481.74, -50950.87, -60581.76, -41296.72, -39019.44, -65772.15, -100794.18, -43928.30, -26430.87, 0.000, 0.000, 0.000, 17:21:54.746
