%OpenBCI Raw EEG Data
%
%Sample Rate = 250.0 Hz
%First Column = SampleIndex
%Last Column = Timestamp 
%Other Columns = EEG data in microvolts followed by Accel Data (in G) interleaved with Aux Data
0, -29051.52, -187500.02, 26546.50, 65873.09, 105900.10, 36431.73, -187500.02, -187500.02, 0.016, 0.478, -0.068, 11:51:47.980
1, -27685.32, -187500.02, 28481.04, 65518.48, 105540.55, 36095.47, -187500.02, -187500.02, 0.000, 0.000, 0.000, 11:51:47.985
2, -24928.18, -187500.02, 30963.13, 65293.60, 105304.56, 35870.35, -187500.02, -187500.02, 0.000, 0.000, 0.000, 11:51:47.985
3, -24780.35, -187500.02, 30421.26, 65519.93, 105526.90, 36084.95, -187500.02, -187500.02, 0.000, 0.000, 0.000, 11:51:47.986
4, -27278.11, -187500.02, 27770.14, 65850.49, 105871.70, 36421.59, -187500.02, -187500.02, 0.000, 0.000, 0.000, 11:51:47.994
5, -29056.75, -187500.02, 26581.61, 65856.38, 105885.71, 36431.91, -187500.02, -187500.02, 0.000, 0.000, 0.000, 11:51:47.994
6, -27726.58, -187500.02, 28480.81, 65513.95, 105539.77, 36097.39, -187500.02, -187500.02, 0.032, 0.960, -0.144, 11:51:47.994
7, -24939.16, -187500.02, 31002.40, 65272.86, 105286.91, 35856.18, -187500.02, -187500.02, 0.000, 0.000, 0.000, 11:51:47.995
8, -24772.71, -187500.02, 30477.00, 65518.68, 105537.24, 36095.54, -187500.02, -187500.02, 0.000, 0.000, 0.000, 11:51:47.995
9, -27316.65, -187500.02, 27775.19, 65872.63, 105908.71, 36440.59, -187500.02, -187500.02, 0.000, 0.000, 0.000, 11:51:47.996
10, -29103.24, -187500.02, 26572.85, 65862.68, 105903.74, 36438.57, -187500.02, -187500.02, 0.000, 0.000, 0.000, 11:51:47.997
11, -27770.90, -187500.02, 28477.66, 65508.85, 105547.52, 36093.26, -187500.02, -187500.02, 0.000, 0.000, 0.000, 11:51:47.998
12, -24991.62, -187500.02, 30991.83, 65271.27, 105299.47, 35852.87, -187500.02, -187500.02, 0.000, 0.000, 0.000, 11:51:47.999
13, -24799.33, -187500.02, 30483.71, 65508.47, 105526.05, 36084.34, -187500.02, -187500.02, 0.000, 0.000, 0.000, 11:51:48.000
14, -27302.32, -187500.02, 27811.40, 65860.35, 105874.87, 36439.40, -187500.02, -187500.02, 0.000, 0.000, 0.000, 11:51:48.001
15, -29128.81, -187500.02, 26565.18, 65881.63, 105901.87, 36473.04, -187500.02, -187500.02, 0.000, 0.000, 0.000, 11:51:48.001
16, -27840.91, -187500.02, 28431.53, 65531.58, 105564.67, 36135.46, -187500.02, -187500.02, 0.038, 0.958, -0.144, 11:51:48.002
17, -25045.33, -187500.02, 30975.14, 65276.05, 105307.85, 35881.39, -187500.02, -187500.02, 0.000, 0.000, 0.000, 11:51:48.002
18, -24781.58, -187500.02, 30536.53, 65496.87, 105516.95, 36087.47, -187500.02, -187500.02, 0.000, 0.000, 0.000, 11:51:48.002
19, -27272.39, -187500.02, 27862.77, 65856.80, 105880.57, 36441.19, -187500.02, -187500.02, 0.000, 0.000, 0.000, 11:51:48.003
20, -29124.23, -187500.02, 26589.43, 65870.88, 105901.42, 36470.18, -187500.02, -187500.02, 0.000, 0.000, 0.000, 11:51:48.004
21, -27852.15, -187500.02, 28446.24, 65520.96, 105556.42, 36129.43, -187500.02, -187500.02, 0.000, 0.000, 0.000, 11:51:48.004
22, -25069.45, -187500.02, 30983.63, 65275.09, 105309.39, 35877.14, -187500.02, -187500.02, 0.000, 0.000, 0.000, 11:51:48.005
23, -24784.48, -187500.02, 30569.76, 65496.64, 105524.64, 36093.37, -187500.02, -187500.02, 0.000, 0.000, 0.000, 11:51:48.005
24, -27230.95, -187500.02, 27933.15, 65842.78, 105872.52, 36438.28, -187500.02, -187500.02, 0.000, 0.000, 0.000, 11:51:48.006
25, -29115.02, -187500.02, 26619.45, 65872.89, 105917.09, 36480.23, -187500.02, -187500.02, 0.000, 0.000, 0.000, 11:51:48.006
26, -27915.41, -187500.02, 28416.15, 65534.39, 105584.01, 36154.57, -187500.02, -187500.02, 0.036, 0.962, -0.144, 11:51:48.006
27, -25132.03, -187500.02, 30966.17, 65287.39, 105324.39, 35899.11, -187500.02, -187500.02, 0.000, 0.000, 0.000, 11:51:48.007
28, -24831.13, -187500.02, 30571.44, 65506.99, 105535.86, 36104.30, -187500.02, -187500.02, 0.000, 0.000, 0.000, 11:51:48.007
29, -27282.74, -187500.02, 27935.12, 65858.38, 105894.80, 36456.03, -187500.02, -187500.02, 0.000, 0.000, 0.000, 11:51:48.008
30, -29176.56, -187500.02, 26612.95, 65892.98, 105932.89, 36502.45, -187500.02, -187500.02, 0.000, 0.000, 0.000, 11:51:48.008
31, -27994.60, -187500.02, 28398.40, 65549.62, 105589.95, 36170.02, -187500.02, -187500.02, 0.000, 0.000, 0.000, 11:51:48.009
32, -25195.13, -187500.02, 30968.05, 65288.46, 105327.09, 35903.74, -187500.02, -187500.02, 0.000, 0.000, 0.000, 11:51:48.009
33, -24846.56, -187500.02, 30618.47, 65492.64, 105540.22, 36101.42, -187500.02, -187500.02, 0.000, 0.000, 0.000, 11:51:48.010
34, -27305.31, -187500.02, 27964.09, 65848.37, 105903.97, 36455.87, -187500.02, -187500.02, 0.000, 0.000, 0.000, 11:51:48.010
35, -29223.25, -187500.02, 26614.49, 65884.80, 105936.34, 36499.55, -187500.02, -187500.02, 0.000, 0.000, 0.000, 11:51:48.010
36, -28042.47, -187500.02, 28399.83, 65536.90, 105591.34, 36164.63, -187500.02, -187500.02, 0.040, 0.958, -0.148, 11:51:48.011
37, -25236.71, -187500.02, 30984.75, 65281.13, 105340.77, 35903.38, -187500.02, -187500.02, 0.000, 0.000, 0.000, 11:51:48.011
38, -24877.78, -187500.02, 30644.42, 65494.54, 105545.94, 36113.45, -187500.02, -187500.02, 0.000, 0.000, 0.000, 11:51:48.012
39, -27319.82, -187500.02, 27999.18, 65859.16, 105911.88, 36479.01, -187500.02, -187500.02, 0.000, 0.000, 0.000, 11:51:48.012
40, -29259.97, -187500.02, 26623.32, 65895.09, 105959.88, 36515.21, -187500.02, -187500.02, 0.000, 0.000, 0.000, 11:51:48.013
41, -28151.93, -187500.02, 28347.51, 65563.61, 105630.23, 36195.65, -187500.02, -187500.02, 0.000, 0.000, 0.000, 11:51:48.014
42, -25335.23, -187500.02, 30954.51, 65287.23, 105349.04, 35920.82, -187500.02, -187500.02, 0.000, 0.000, 0.000, 11:51:48.014
43, -24920.83, -187500.02, 30663.62, 65483.90, 105543.44, 36107.07, -187500.02, -187500.02, 0.000, 0.000, 0.000, 11:51:48.014
44, -27348.61, -187500.02, 28022.67, 65843.30, 105911.16, 36463.90, -187500.02, -187500.02, 0.000, 0.000, 0.000, 11:51:48.015
45, -29308.30, -187500.02, 26621.62, 65882.86, 105966.73, 36507.98, -187500.02, -187500.02, 0.000, 0.000, 0.000, 11:51:48.016
46, -28165.86, -187500.02, 28379.81, 65535.54, 105621.96, 36176.70, -187500.02, -187500.02, 0.036, 0.960, -0.138, 11:51:48.017
47, -25369.10, -187500.02, 30970.49, 65287.83, 105360.58, 35928.39, -187500.02, -187500.02, 0.000, 0.000, 0.000, 11:51:48.017
48, -24963.46, -187500.02, 30674.39, 65487.79, 105552.58, 36115.41, -187500.02, -187500.02, 0.000, 0.000, 0.000, 11:51:48.018
49, -27365.37, -187500.02, 28050.70, 65842.00, 105910.59, 36469.95, -187500.02, -187500.02, 0.000, 0.000, 0.000, 11:51:48.019
50, -29366.79, -187500.02, 26602.55, 65904.41, 105979.88, 36541.32, -187500.02, -187500.02, 0.000, 0.000, 0.000, 11:51:48.019
51, -28250.10, -187500.02, 28339.78, 65550.53, 105629.13, 36193.82, -187500.02, -187500.02, 0.000, 0.000, 0.000, 11:51:48.019
52, -25414.38, -187500.02, 30969.48, 65290.88, 105362.68, 35937.00, -187500.02, -187500.02, 0.000, 0.000, 0.000, 11:51:48.020
53, -24965.51, -187500.02, 30707.52, 65501.76, 105569.25, 36142.57, -187500.02, -187500.02, 0.000, 0.000, 0.000, 11:51:48.020
54, -27360.30, -187500.02, 28083.60, 65848.69, 105924.38, 36488.71, -187500.02, -187500.02, 0.000, 0.000, 0.000, 11:51:48.021
55, -29374.79, -187500.02, 26615.07, 65905.48, 105995.61, 36548.32, -187500.02, -187500.02, 0.000, 0.000, 0.000, 11:51:48.021
56, -28331.30, -187500.02, 28289.04, 65571.97, 105661.68, 36217.92, -187500.02, -187500.02, 0.042, 0.962, -0.140, 11:51:48.021
57, -25492.10, -187500.02, 30940.16, 65295.41, 105379.66, 35942.52, -187500.02, -187500.02, 0.000, 0.000, 0.000, 11:51:48.022
58, -24986.50, -187500.02, 30739.79, 65492.13, 105569.92, 36136.64, -187500.02, -187500.02, 0.000, 0.000, 0.000, 11:51:48.022
59, -27363.25, -187500.02, 28125.09, 65854.98, 105933.59, 36497.34, -187500.02, -187500.02, 0.000, 0.000, 0.000, 11:51:48.022
60, -29369.63, -187500.02, 26658.12, 65902.95, 105984.28, 36558.13, -187500.02, -187500.02, 0.000, 0.000, 0.000, 11:51:48.023
61, -28322.92, -187500.02, 28331.71, 65567.23, 105651.95, 36232.91, -187500.02, -187500.02, 0.000, 0.000, 0.000, 11:51:48.023
62, -25497.01, -187500.02, 30971.98, 65292.19, 105368.71, 35949.58, -187500.02, -187500.02, 0.000, 0.000, 0.000, 11:51:48.024
63, -24960.17, -187500.02, 30796.46, 65491.35, 105563.84, 36138.37, -187500.02, -187500.02, 0.000, 0.000, 0.000, 11:51:48.025
64, -27327.73, -187500.02, 28182.96, 65848.66, 105930.01, 36500.42, -187500.02, -187500.02, 0.000, 0.000, 0.000, 11:51:48.026
65, -29355.60, -187500.02, 26685.54, 65907.54, 105995.39, 36572.32, -187500.02, -187500.02, 0.040, 0.958, -0.138, 11:51:48.026
66, -28386.36, -187500.02, 28288.77, 65588.22, 105675.05, 36253.59, -187500.02, -187500.02, 0.000, 0.000, 0.000, 11:51:48.031
67, -25575.71, -187500.02, 30927.48, 65311.71, 105398.66, 35966.55, -187500.02, -187500.02, 0.000, 0.000, 0.000, 11:51:48.031
68, -25016.23, -187500.02, 30783.00, 65493.31, 105580.95, 36138.37, -187500.02, -187500.02, 0.000, 0.000, 0.000, 11:51:48.032
69, -27348.61, -187500.02, 28194.62, 65843.07, 105937.19, 36490.63, -187500.02, -187500.02, 0.000, 0.000, 0.000, 11:51:48.032
70, -29392.05, -187500.02, 26674.41, 65902.41, 106008.24, 36565.62, -187500.02, -187500.02, 0.000, 0.000, 0.000, 11:51:48.033
71, -28414.59, -187500.02, 28289.87, 65570.23, 105675.76, 36246.17, -187500.02, -187500.02, 0.000, 0.000, 0.000, 11:51:48.033
72, -25552.60, -187500.02, 30982.18, 65288.19, 105381.03, 35956.56, -187500.02, -187500.02, 0.000, 0.000, 0.000, 11:51:48.034
73, -24951.83, -187500.02, 30866.44, 65485.16, 105569.54, 36144.34, -187500.02, -187500.02, 0.000, 0.000, 0.000, 11:51:48.034
74, -27280.55, -187500.02, 28269.95, 65841.71, 105929.72, 36501.74, -187500.02, -187500.02, 0.000, 0.000, 0.000, 11:51:48.035
75, -29356.82, -187500.02, 26707.45, 65917.66, 106011.21, 36586.50, -187500.02, -187500.02, 0.042, 0.966, -0.132, 11:51:48.035
76, -28429.45, -187500.02, 28272.68, 65592.11, 105691.63, 36269.59, -187500.02, -187500.02, 0.000, 0.000, 0.000, 11:51:48.035
77, -25577.41, -187500.02, 30962.17, 65296.64, 105403.63, 35964.80, -187500.02, -187500.02, 0.000, 0.000, 0.000, 11:51:48.036
78, -24912.07, -187500.02, 30910.96, 65476.75, 105574.35, 36137.98, -187500.02, -187500.02, 0.000, 0.000, 0.000, 11:51:48.036
79, -27251.07, -187500.02, 28296.03, 65848.10, 105953.66, 36513.63, -187500.02, -187500.02, 0.000, 0.000, 0.000, 11:51:48.037
80, -29349.87, -187500.02, 26706.53, 65921.23, 106036.23, 36598.70, -187500.02, -187500.02, 0.000, 0.000, 0.000, 11:51:48.037
81, -28438.82, -187500.02, 28258.33, 65589.83, 105711.74, 36273.82, -187500.02, -187500.02, 0.000, 0.000, 0.000, 11:51:48.038
82, -25584.79, -187500.02, 30956.07, 65296.33, 105406.94, 35980.68, -187500.02, -187500.02, 0.000, 0.000, 0.000, 11:51:48.039
83, -24883.64, -187500.02, 30940.76, 65469.55, 105571.55, 36146.37, -187500.02, -187500.02, 0.000, 0.000, 0.000, 11:51:48.040
84, -27178.63, -187500.02, 28362.11, 65841.48, 105948.02, 36514.17, -187500.02, -187500.02, 0.000, 0.000, 0.000, 11:51:48.040
85, -29316.23, -187500.02, 26730.94, 65928.44, 106043.13, 36614.52, -187500.02, -187500.02, 0.042, 0.966, -0.140, 11:51:48.041
86, -28450.69, -187500.02, 28242.61, 65600.96, 105720.08, 36294.89, -187500.02, -187500.02, 0.000, 0.000, 0.000, 11:51:48.041
87, -25592.61, -187500.02, 30951.98, 65295.68, 105415.83, 35991.47, -187500.02, -187500.02, 0.000, 0.000, 0.000, 11:51:48.042
88, -24851.38, -187500.02, 30976.07, 65459.83, 105576.63, 36145.81, -187500.02, -187500.02, 0.000, 0.000, 0.000, 11:51:48.042
89, -27172.86, -187500.02, 28371.49, 65841.48, 105964.72, 36519.53, -187500.02, -187500.02, 0.000, 0.000, 0.000, 11:51:48.043
90, -29313.28, -187500.02, 26733.98, 65914.30, 106044.59, 36611.66, -187500.02, -187500.02, 0.000, 0.000, 0.000, 11:51:48.043
91, -28458.84, -187500.02, 28230.05, 65589.52, 105721.76, 36299.77, -187500.02, -187500.02, 0.000, 0.000, 0.000, 11:51:48.044
92, -25601.04, -187500.02, 30940.00, 65292.19, 105419.79, 35995.88, -187500.02, -187500.02, 0.000, 0.000, 0.000, 11:51:48.044
93, -24836.97, -187500.02, 30991.72, 65460.39, 105578.26, 36157.86, -187500.02, -187500.02, 0.000, 0.000, 0.000, 11:51:48.045
94, -27121.54, -187500.02, 28418.25, 65839.32, 105959.16, 36534.21, -187500.02, -187500.02, 0.000, 0.000, 0.000, 11:51:48.045
95, -29303.27, -187500.02, 26728.04, 65928.99, 106060.16, 36628.63, -187500.02, -187500.02, 0.050, 0.962, -0.138, 11:51:48.045
96, -28466.78, -187500.02, 28199.34, 65602.73, 105736.71, 36319.06, -187500.02, -187500.02, 0.000, 0.000, 0.000, 11:51:48.048
97, -25528.84, -187500.02, 30982.38, 65279.61, 105408.68, 35996.50, -187500.02, -187500.02, 0.000, 0.000, 0.000, 11:51:48.050
98, -24758.56, -187500.02, 31034.03, 65465.75, 105591.72, 36165.52, -187500.02, -187500.02, 0.000, 0.000, 0.000, 11:51:48.051
99, -27092.12, -187500.02, 28417.47, 65851.03, 105987.16, 36549.88, -187500.02, -187500.02, 0.000, 0.000, 0.000, 11:51:48.051
100, -29280.79, -187500.02, 26727.57, 65929.66, 106072.28, 36643.96, -187500.02, -187500.02, 0.000, 0.000, 0.000, 11:51:48.052
101, -28438.08, -187500.02, 28200.32, 65606.81, 105754.84, 36333.56, -187500.02, -187500.02, 0.000, 0.000, 0.000, 11:51:48.052
102, -25529.92, -187500.02, 30949.97, 65298.74, 105447.70, 36018.72, -187500.02, -187500.02, 0.000, 0.000, 0.000, 11:51:48.053
103, -24734.53, -187500.02, 31037.47, 65462.45, 105602.02, 36165.25, -187500.02, -187500.02, 0.000, 0.000, 0.000, 11:51:48.054
104, -27078.73, -187500.02, 28426.41, 65845.06, 105994.61, 36551.25, -187500.02, -187500.02, 0.000, 0.000, 0.000, 11:51:48.054
105, -29357.14, -187500.02, 26657.45, 65954.27, 106109.90, 36674.65, -187500.02, -187500.02, 0.048, 0.968, -0.134, 11:51:48.059
106, -28554.35, -187500.02, 28090.80, 65619.94, 105777.21, 36349.99, -187500.02, -187500.02, 0.000, 0.000, 0.000, 11:51:48.060
107, -25606.76, -187500.02, 30880.52, 65298.05, 105450.59, 36022.88, -187500.02, -187500.02, 0.000, 0.000, 0.000, 11:51:48.060
108, -24758.33, -187500.02, 31032.63, 65445.68, 105590.64, 36159.58, -187500.02, -187500.02, 0.000, 0.000, 0.000, 11:51:48.060
109, -27111.44, -187500.02, 28432.54, 65828.10, 105977.59, 36538.91, -187500.02, -187500.02, 0.000, 0.000, 0.000, 11:51:48.061
110, -29423.16, -187500.02, 26640.95, 65937.45, 106093.29, 36662.63, -187500.02, -187500.02, 0.000, 0.000, 0.000, 11:51:48.062
111, -28649.15, -187500.02, 28043.97, 65614.08, 105778.84, 36350.02, -187500.02, -187500.02, 0.000, 0.000, 0.000, 11:51:48.062
112, -25643.26, -187500.02, 30882.96, 65278.45, 105448.55, 36003.05, -187500.02, -187500.02, 0.000, 0.000, 0.000, 11:51:48.065
113, -24765.15, -187500.02, 31066.71, 65435.69, 105598.51, 36145.96, -187500.02, -187500.02, 0.000, 0.000, 0.000, 11:51:48.065
114, -27185.64, -187500.02, 28419.42, 65843.34, 106010.14, 36549.19, -187500.02, -187500.02, 0.000, 0.000, 0.000, 11:51:48.066
115, -29565.30, -187500.02, 26578.99, 65952.98, 106125.85, 36676.64, -187500.02, -187500.02, 0.050, 0.966, -0.134, 11:51:48.066
116, -28732.07, -187500.02, 28028.17, 65602.99, 105776.52, 36347.29, -187500.02, -187500.02, 0.000, 0.000, 0.000, 11:51:48.067
117, -25648.78, -187500.02, 30914.83, 65261.26, 105429.13, 35996.72, -187500.02, -187500.02, 0.000, 0.000, 0.000, 11:51:48.067
118, -24765.78, -187500.02, 31102.54, 65442.55, 105604.21, 36162.26, -187500.02, -187500.02, 0.000, 0.000, 0.000, 11:51:48.068
119, -27274.65, -187500.02, 28400.24, 65862.84, 106032.85, 36578.76, -187500.02, -187500.02, 0.000, 0.000, 0.000, 11:51:48.068
120, -29728.65, -187500.02, 26510.06, 65965.56, 106143.65, 36689.27, -187500.02, -187500.02, 0.000, 0.000, 0.000, 11:51:48.461
121, -28889.94, -187500.02, 27953.45, 65617.74, 105792.73, 36352.36, -187500.02, -187500.02, 0.000, 0.000, 0.000, 11:51:48.462
122, -25747.64, -187500.02, 30877.23, 65271.25, 105453.20, 35999.61, -187500.02, -187500.02, 0.000, 0.000, 0.000, 11:51:48.462
123, -24799.28, -187500.02, 31132.58, 65422.55, 105599.27, 36139.95, -187500.02, -187500.02, 0.000, 0.000, 0.000, 11:51:48.462
124, -27369.58, -187500.02, 28403.34, 65854.56, 106035.09, 36573.18, -187500.02, -187500.02, 0.042, 0.964, -0.140, 11:51:48.463
125, -29918.59, -187500.02, 26447.97, 65979.58, 106168.28, 36711.15, -187500.02, -187500.02, 0.000, 0.000, 0.000, 11:51:48.464
126, -29076.02, -187500.02, 27880.09, 65627.16, 105812.98, 36375.92, -187500.02, -187500.02, 0.000, 0.000, 0.000, 11:51:48.464
127, -25784.50, -187500.02, 30913.60, 65263.38, 105443.93, 36012.10, -187500.02, -187500.02, 0.000, 0.000, 0.000, 11:51:48.466
128, -24823.67, -187500.02, 31177.91, 65427.60, 105610.02, 36157.32, -187500.02, -187500.02, 0.000, 0.000, 0.000, 11:51:48.467
129, -27490.43, -187500.02, 28394.83, 65866.59, 106051.65, 36585.87, -187500.02, -187500.02, 0.000, 0.000, 0.000, 11:51:48.468
130, -30125.37, -187500.02, 26384.58, 65996.01, 106187.95, 36729.86, -187500.02, -187500.02, 0.000, 0.000, 0.000, 11:51:48.470
131, -29252.17, -187500.02, 27827.36, 65637.77, 105838.93, 36392.66, -187500.02, -187500.02, 0.000, 0.000, 0.000, 11:51:48.470
132, -25864.28, -187500.02, 30910.47, 65254.22, 105451.86, 36006.91, -187500.02, -187500.02, 0.000, 0.000, 0.000, 11:51:48.471
133, -24864.84, -187500.02, 31205.94, 65411.11, 105608.44, 36150.01, -187500.02, -187500.02, 0.000, 0.000, 0.000, 11:51:48.471
134, -27630.91, -187500.02, 28368.70, 65848.88, 106049.30, 36581.51, -187500.02, -187500.02, 0.040, 0.958, -0.136, 11:51:48.471
135, -30367.21, -187500.02, 26291.26, 65967.77, 106176.86, 36718.62, -187500.02, -187500.02, 0.000, 0.000, 0.000, 11:51:48.472
136, -29460.38, -187500.02, 27741.08, 65616.61, 105826.19, 36386.83, -187500.02, -187500.02, 0.000, 0.000, 0.000, 11:51:48.472
137, -25919.28, -187500.02, 30923.55, 65232.58, 105436.26, 35996.72, -187500.02, -187500.02, 0.000, 0.000, 0.000, 11:51:48.473
138, -24885.43, -187500.02, 31249.59, 65408.00, 105601.77, 36155.00, -187500.02, -187500.02, 0.000, 0.000, 0.000, 11:51:48.473
139, -27799.31, -187500.02, 28328.44, 65865.52, 106065.35, 36602.46, -187500.02, -187500.02, 0.000, 0.000, 0.000, 11:51:48.474
140, -30683.60, -187500.02, 26167.39, 66001.99, 106213.45, 36755.92, -187500.02, -187500.02, 0.000, 0.000, 0.000, 11:51:48.474
141, -29765.84, -187500.02, 27622.91, 65635.91, 105853.70, 36408.98, -187500.02, -187500.02, 0.000, 0.000, 0.000, 11:51:48.474
142, -26096.02, -187500.02, 30887.70, 65231.62, 105436.62, 36003.94, -187500.02, -187500.02, 0.000, 0.000, 0.000, 11:51:48.475
143, -25002.66, -187500.02, 31268.95, 65403.30, 105603.25, 36156.29, -187500.02, -187500.02, 0.000, 0.000, 0.000, 11:51:48.475
144, -28030.27, -187500.02, 28288.75, 65878.19, 106085.53, 36625.37, -187500.02, -187500.02, 0.040, 0.964, -0.138, 11:51:48.476
145, -31039.82, -187500.02, 26041.35, 66017.95, 106236.01, 36778.12, -187500.02, -187500.02, 0.000, 0.000, 0.000, 11:51:48.476
146, -30044.68, -187500.02, 27528.99, 65646.53, 105864.14, 36418.50, -187500.02, -187500.02, 0.000, 0.000, 0.000, 11:51:48.476
147, -26164.41, -187500.02, 30915.30, 65240.94, 105441.98, 36010.31, -187500.02, -187500.02, 0.000, 0.000, 0.000, 11:51:48.477
148, -24946.85, -187500.02, 31383.99, 65394.18, 105600.84, 36144.02, -187500.02, -187500.02, 0.000, 0.000, 0.000, 11:51:48.477
149, -28087.25, -187500.02, 28329.74, 65876.78, 106087.27, 36620.92, -187500.02, -187500.02, 0.000, 0.000, 0.000, 11:51:48.478
150, -31239.18, -187500.02, 25976.44, 66023.16, 106240.52, 36779.70, -187500.02, -187500.02, 0.000, 0.000, 0.000, 11:51:48.478
151, -30207.17, -187500.02, 27464.59, 65651.19, 105876.84, 36429.45, -187500.02, -187500.02, 0.000, 0.000, 0.000, 11:51:48.478
152, -26121.95, -187500.02, 30978.11, 65221.20, 105436.51, 35996.39, -187500.02, -187500.02, 0.000, 0.000, 0.000, 11:51:48.479
153, -24834.93, -187500.02, 31489.43, 65380.04, 105593.48, 36134.52, -187500.02, -187500.02, 0.000, 0.000, 0.000, 11:51:48.480
154, -28168.03, -187500.02, 28300.84, 65882.48, 106103.50, 36632.61, -187500.02, -187500.02, 0.042, 0.956, -0.138, 11:51:48.480
155, -31514.62, -187500.02, 25815.62, 66050.16, 106269.58, 36819.89, -187500.02, -187500.02, 0.000, 0.000, 0.000, 11:51:48.481
156, -30475.93, -187500.02, 27308.06, 65681.02, 105895.81, 36465.42, -187500.02, -187500.02, 0.000, 0.000, 0.000, 11:51:48.481
157, -26208.80, -187500.02, 30958.15, 65215.53, 105419.74, 35991.74, -187500.02, -187500.02, 0.000, 0.000, 0.000, 11:51:48.481
158, -24836.72, -187500.02, 31549.75, 65355.16, 105558.08, 36119.55, -187500.02, -187500.02, 0.000, 0.000, 0.000, 11:51:48.482
159, -28376.05, -187500.02, 28228.82, 65890.70, 106105.56, 36659.14, -187500.02, -187500.02, 0.000, 0.000, 0.000, 11:51:48.482
160, -31933.80, -187500.02, 25607.90, 66057.54, 106289.00, 36836.84, -187500.02, -187500.02, 0.000, 0.000, 0.000, 11:51:48.483
161, -30826.70, -187500.02, 27145.43, 65682.45, 105906.85, 36473.00, -187500.02, -187500.02, 0.000, 0.000, 0.000, 11:51:48.483
162, -26280.00, -187500.02, 30987.09, 65210.39, 105425.66, 35994.71, -187500.02, -187500.02, 0.000, 0.000, 0.000, 11:51:48.483
163, -24783.59, -187500.02, 31662.18, 65354.46, 105568.80, 36118.81, -187500.02, -187500.02, 0.000, 0.000, 0.000, 11:51:48.484
164, -28496.26, -187500.02, 28219.21, 65903.27, 106124.11, 36674.70, -187500.02, -187500.02, 0.042, 0.960, -0.158, 11:51:48.484
165, -32250.64, -187500.02, 25464.18, 66080.38, 106316.02, 36873.80, -187500.02, -187500.02, 0.000, 0.000, 0.000, 11:51:48.485
166, -31048.03, -187500.02, 27080.28, 65675.26, 105903.95, 36479.63, -187500.02, -187500.02, 0.000, 0.000, 0.000, 11:51:48.485
167, -26214.71, -187500.02, 31126.57, 65179.76, 105396.32, 35971.04, -187500.02, -187500.02, 0.000, 0.000, 0.000, 11:51:48.486
168, -24646.31, -187500.02, 31842.50, 65343.58, 105573.48, 36122.50, -187500.02, -187500.02, 0.000, 0.000, 0.000, 11:51:48.486
169, -28602.50, -187500.02, 28221.58, 65905.30, 106148.85, 36687.01, -187500.02, -187500.02, 0.000, 0.000, 0.000, 11:51:48.487
170, -32579.90, -187500.02, 25313.80, 66087.27, 106333.44, 36879.24, -187500.02, -187500.02, 0.000, 0.000, 0.000, 11:51:48.487
171, -31321.28, -187500.02, 26977.64, 65686.32, 105926.70, 36487.72, -187500.02, -187500.02, 0.000, 0.000, 0.000, 11:51:48.487
172, -26239.92, -187500.02, 31203.01, 65171.38, 105397.86, 35961.30, -187500.02, -187500.02, 0.000, 0.000, 0.000, 11:51:48.488
173, -24543.09, -187500.02, 32014.63, 65326.05, 105553.83, 36104.08, -187500.02, -187500.02, 0.038, 0.964, -0.148, 11:51:48.488
174, -28712.27, -187500.02, 28229.67, 65924.59, 106165.82, 36705.79, -187500.02, -187500.02, 0.000, 0.000, 0.000, 11:51:48.488
175, -32972.22, -187500.02, 25110.66, 66127.70, 106369.11, 36930.54, -187500.02, -187500.02, 0.000, 0.000, 0.000, 11:51:48.489
176, -31667.86, -187500.02, 26809.89, 65712.18, 105935.28, 36531.71, -187500.02, -187500.02, 0.000, 0.000, 0.000, 11:51:48.489
177, -26288.58, -187500.02, 31255.14, 65186.38, 105397.10, 35994.78, -187500.02, -187500.02, 0.000, 0.000, 0.000, 11:51:48.490
178, -24455.13, -187455.61, 32161.70, 65318.01, 105550.03, 36109.11, -187500.02, -187500.02, 0.000, 0.000, 0.000, 11:51:48.490
179, -28841.60, -187500.02, 28199.03, 65920.21, 106178.90, 36712.27, -187500.02, -187500.02, 0.000, 0.000, 0.000, 11:51:48.490
180, -33381.82, -187500.02, 24859.27, 66132.39, 106391.26, 36946.02, -187500.02, -187500.02, 0.000, 0.000, 0.000, 11:51:48.491
181, -32019.30, -187500.02, 26617.84, 65709.81, 105950.46, 36540.95, -187500.02, -187500.02, 0.000, 0.000, 0.000, 11:51:48.491
182, -26297.45, -187500.02, 31341.91, 65146.28, 105381.54, 35968.38, -187500.02, -187500.02, 0.000, 0.000, 0.000, 11:51:48.492
183, -24310.09, -187253.50, 32352.38, 65290.29, 105533.38, 36099.09, -187500.02, -187500.02, 0.042, 0.964, -0.144, 11:51:48.492
184, -28987.11, -187500.02, 28126.14, 65924.81, 106187.19, 36738.53, -187500.02, -187500.02, 0.000, 0.000, 0.000, 11:51:48.492
185, -33807.06, -187500.02, 24556.59, 66135.79, 106401.59, 36968.09, -187500.02, -187500.02, 0.000, 0.000, 0.000, 11:51:48.493
186, -32390.11, -187500.02, 26370.63, 65706.57, 105962.09, 36544.95, -187500.02, -187500.02, 0.000, 0.000, 0.000, 11:51:48.493
187, -26287.04, -187500.02, 31419.18, 65118.99, 105354.81, 35940.96, -187500.02, -187500.02, 0.000, 0.000, 0.000, 11:51:48.494
188, -24110.78, -187026.86, 32570.94, 65261.35, 105505.21, 36075.45, -187500.02, -187500.02, 0.000, 0.000, 0.000, 11:51:48.494
189, -29052.93, -187500.02, 28097.79, 65919.78, 106179.70, 36744.97, -187500.02, -187500.02, 0.000, 0.000, 0.000, 11:51:48.494
190, -34230.67, -187500.02, 24227.14, 66149.78, 106425.21, 36985.79, -187500.02, -187500.02, 0.000, 0.000, 0.000, 11:51:48.495
191, -32743.92, -187500.02, 26138.38, 65700.52, 105970.04, 36541.05, -187500.02, -187500.02, 0.000, 0.000, 0.000, 11:51:48.495
192, -26251.54, -187500.02, 31548.17, 65098.67, 105347.52, 35934.14, -187500.02, -187500.02, 0.000, 0.000, 0.000, 11:51:48.496
193, -23918.13, -186774.56, 32821.82, 65244.61, 105507.98, 36066.39, -187500.02, -187500.02, 0.036, 0.962, -0.140, 11:51:48.496
194, -29197.99, -187500.02, 28026.79, 65935.66, 106217.59, 36769.73, -187500.02, -187500.02, 0.000, 0.000, 0.000, 11:51:48.496
195, -34790.54, -187500.02, 23797.10, 66198.84, 106482.50, 37044.13, -187500.02, -187500.02, 0.000, 0.000, 0.000, 11:51:48.497
196, -33272.63, -187500.02, 25781.87, 65745.58, 106010.38, 36592.51, -187500.02, -187500.02, 0.000, 0.000, 0.000, 11:51:48.498
197, -26331.45, -187500.02, 31628.79, 65086.45, 105337.78, 35923.77, -187500.02, -187500.02, 0.000, 0.000, 0.000, 11:51:48.498
198, -23764.51, -186543.61, 33087.02, 65212.31, 105477.56, 36041.07, -187500.02, -187500.02, 0.000, 0.000, 0.000, 11:51:48.499
199, -29349.87, -187500.02, 27959.64, 65942.34, 106232.80, 36782.41, -187500.02, -187500.02, 0.000, 0.000, 0.000, 11:51:48.500
200, -35338.71, -187500.02, 23351.49, 66232.59, 106527.83, 37087.42, -187500.02, -187500.02, 0.000, 0.000, 0.000, 11:51:48.500
201, -33711.05, -187500.02, 25486.64, 65747.77, 106025.14, 36604.36, -187500.02, -187500.02, 0.000, 0.000, 0.000, 11:51:48.501
202, -26310.55, -187500.02, 31811.31, 65063.87, 105324.77, 35913.98, -187500.02, -187500.02, 0.000, 0.000, 0.000, 11:51:48.501
203, -23550.06, -186246.00, 33433.38, 65198.65, 105470.59, 36041.29, -187500.02, -187500.02, 0.034, 0.958, -0.138, 11:51:48.502
204, -29441.40, -187500.02, 27932.44, 65951.44, 106254.80, 36796.91, -187500.02, -187500.02, 0.000, 0.000, 0.000, 11:51:48.502
205, -35771.29, -187500.02, 22946.72, 66243.05, 106551.77, 37098.44, -187500.02, -187500.02, 0.000, 0.000, 0.000, 11:51:48.503
206, -34076.51, -187500.02, 25204.47, 65752.33, 106032.16, 36600.96, -187500.02, -187500.02, 0.000, 0.000, 0.000, 11:51:48.504
207, -26251.18, -187500.02, 32033.71, 65043.82, 105304.23, 35876.09, -187500.02, -187500.02, 0.000, 0.000, 0.000, 11:51:48.505
208, -23263.45, -185903.97, 33853.57, 65171.79, 105449.20, 35998.38, -187500.02, -187500.02, 0.000, 0.000, 0.000, 11:51:48.505
209, -29420.93, -187500.02, 27961.65, 65953.36, 106255.80, 36800.13, -187500.02, -187500.02, 0.000, 0.000, 0.000, 11:51:48.505
210, -36133.96, -187500.02, 22524.70, 66263.42, 106579.35, 37124.91, -187500.02, -187500.02, 0.000, 0.000, 0.000, 11:51:48.506
211, -34449.00, -187500.02, 24850.09, 65762.27, 106058.22, 36618.53, -187500.02, -187500.02, 0.000, 0.000, 0.000, 11:51:48.506
212, -26215.71, -187500.02, 32197.35, 65027.13, 105301.86, 35873.95, -187500.02, -187500.02, 0.000, 0.000, 0.000, 11:51:48.507
213, -22912.93, -185540.53, 34309.32, 65141.16, 105424.48, 35991.58, -187500.02, -187500.02, 0.034, 0.966, -0.142, 11:51:48.507
214, -29407.50, -187500.02, 27999.43, 65954.07, 106281.78, 36830.87, -187500.02, -187500.02, 0.000, 0.000, 0.000, 11:51:48.507
215, -36645.46, -187500.02, 22072.26, 66287.59, 106627.23, 37166.77, -187500.02, -187500.02, 0.000, 0.000, 0.000, 11:51:48.508
216, -34967.67, -187500.02, 24501.51, 65774.90, 106075.20, 36634.57, -187500.02, -187500.02, 0.000, 0.000, 0.000, 11:51:48.508
217, -26235.25, -187500.02, 32406.21, 65001.24, 105272.58, 35840.08, -187500.02, -187500.02, 0.000, 0.000, 0.000, 11:51:48.508
218, -22662.57, -185197.58, 34748.04, 65112.11, 105407.78, 35949.00, -187500.02, -187500.02, 0.000, 0.000, 0.000, 11:51:48.509
219, -29464.96, -187500.02, 28053.65, 65947.23, 106288.27, 36817.88, -187500.02, -187500.02, 0.000, 0.000, 0.000, 11:51:48.509
220, -37114.15, -187500.02, 21661.59, 66297.57, 106649.18, 37188.74, -187500.02, -187500.02, 0.000, 0.000, 0.000, 11:51:48.510
221, -35373.89, -187500.02, 24187.56, 65779.30, 106089.20, 36656.95, -187500.02, -187500.02, 0.000, 0.000, 0.000, 11:51:48.510
222, -26183.99, -187500.02, 32606.86, 64991.85, 105266.45, 35850.03, -187500.02, -187500.02, 0.000, 0.000, 0.000, 11:51:48.511
223, -22385.79, -184887.83, 35146.06, 65093.66, 105391.31, 35957.00, -187500.02, -187500.02, 0.046, 0.960, -0.138, 11:51:48.511
224, -29490.15, -187500.02, 28046.52, 65951.81, 106295.26, 36843.63, -187500.02, -187500.02, 0.000, 0.000, 0.000, 11:51:48.511
225, -37535.71, -187500.02, 21234.94, 66315.26, 106665.20, 37226.96, -187500.02, -187500.02, 0.000, 0.000, 0.000, 11:51:48.512
226, -35806.22, -187500.02, 23872.51, 65794.21, 106107.77, 36676.62, -187500.02, -187500.02, 0.000, 0.000, 0.000, 11:51:48.512
227, -26225.05, -187500.02, 32802.88, 64970.53, 105242.52, 35825.13, -187500.02, -187500.02, 0.000, 0.000, 0.000, 11:51:48.512
228, -22241.26, -184570.50, 35537.84, 65073.39, 105369.72, 35945.70, -187500.02, -187500.02, 0.000, 0.000, 0.000, 11:51:48.513
229, -29610.29, -187500.02, 28115.81, 65941.58, 106300.04, 36857.87, -187500.02, -187500.02, 0.000, 0.000, 0.000, 11:51:48.514
230, -37995.75, -187500.02, 20924.12, 66327.08, 106699.11, 37258.86, -187500.02, -187500.02, 0.000, 0.000, 0.000, 11:51:48.514
231, -36228.18, -187500.02, 23623.31, 65809.81, 106126.44, 36699.20, -187500.02, -187500.02, 0.000, 0.000, 0.000, 11:51:48.515
232, -26340.10, -187500.02, 32911.67, 64996.14, 105260.77, 35846.56, -187500.02, -187500.02, 0.046, 0.958, -0.136, 11:51:48.515
233, -22083.77, -184288.19, 35895.47, 65039.51, 105347.81, 35909.89, -187500.02, -187500.02, 0.000, 0.000, 0.000, 11:51:48.516
234, -29605.76, -187500.02, 28276.41, 65904.12, 106302.23, 36854.98, -187500.02, -187500.02, 0.000, 0.000, 0.000, 11:51:48.516
235, -38316.99, -187500.02, 20787.86, 66308.98, 106717.84, 37282.89, -187500.02, -187500.02, 0.000, 0.000, 0.000, 11:51:48.516
236, -36583.90, -187500.02, 23484.62, 65816.97, 106126.26, 36713.39, -187500.02, -187500.02, 0.000, 0.000, 0.000, 11:51:48.517
237, -26397.23, -187500.02, 33022.71, 65001.13, 105230.42, 35831.19, -187500.02, -187500.02, 0.000, 0.000, 0.000, 11:51:48.517
238, -21881.87, -183995.91, 36179.29, 65031.79, 105324.26, 35907.20, -187500.02, -187500.02, 0.000, 0.000, 0.000, 11:51:48.517
239, -29497.51, -187500.02, 28433.97, 65889.81, 106315.51, 36863.64, -187500.02, -187500.02, 0.000, 0.000, 0.000, 11:51:48.518
240, -38485.50, -187500.02, 20721.59, 66303.79, 106746.02, 37300.28, -187500.02, -187500.02, 0.000, 0.000, 0.000, 11:51:48.941
241, -36818.60, -187500.02, 23399.55, 65819.65, 106134.93, 36720.74, -187500.02, -187500.02, 0.000, 0.000, 0.000, 11:51:48.942
242, -26351.01, -187500.02, 33172.54, 64996.03, 105223.43, 35820.97, -187500.02, -187500.02, 0.042, 0.958, -0.140, 11:51:48.942
243, -21715.14, -183726.22, 36442.46, 65030.36, 105338.42, 35914.58, -187500.02, -187500.02, 0.000, 0.000, 0.000, 11:51:48.942
244, -29602.69, -187500.02, 28519.80, 65882.16, 106331.02, 36884.04, -187500.02, -187500.02, 0.000, 0.000, 0.000, 11:51:48.943
245, -38968.95, -187500.02, 20462.15, 66316.23, 106778.51, 37341.38, -187500.02, -187500.02, 0.000, 0.000, 0.000, 11:51:48.943
246, -37340.06, -187500.02, 23076.79, 65846.31, 106165.53, 36760.24, -187500.02, -187500.02, 0.000, 0.000, 0.000, 11:51:48.944
247, -26633.35, -187500.02, 33143.37, 65021.36, 105244.17, 35845.74, -187500.02, -187500.02, 0.000, 0.000, 0.000, 11:51:48.944
248, -21740.29, -183535.67, 36692.15, 65016.71, 105338.36, 35911.86, -187500.02, -187500.02, 0.000, 0.000, 0.000, 11:51:48.944
249, -29734.84, -187500.02, 28500.02, 65859.32, 106346.94, 36893.18, -187500.02, -187500.02, 0.000, 0.000, 0.000, 11:51:48.944
250, -39368.77, -187500.02, 20004.81, 66306.96, 106800.74, 37363.60, -187500.02, -187500.02, 0.000, 0.000, 0.000, 11:51:48.944
251, -37780.64, -187500.02, 22654.41, 65865.88, 106194.43, 36791.33, -187500.02, -187500.02, 0.000, 0.000, 0.000, 11:51:48.945
252, -26766.68, -187500.02, 33291.87, 65018.27, 105235.16, 35836.68, -187500.02, -187500.02, 0.042, 0.966, -0.130, 11:51:48.945
253, -21674.91, -183261.33, 37106.13, 64997.62, 105326.73, 35903.89, -187500.02, -187500.02, 0.000, 0.000, 0.000, 11:51:48.945
254, -29857.77, -187500.02, 28462.51, 65851.32, 106363.50, 36915.43, -187500.02, -187500.02, 0.000, 0.000, 0.000, 11:51:48.945
255, -39811.85, -187500.02, 19383.03, 66317.80, 106841.98, 37409.35, -187500.02, -187500.02, 0.000, 0.000, 0.000, 11:51:48.945
0, -38273.27, -187500.02, 22095.26, 65889.92, 106230.02, 36826.93, -187500.02, -187500.02, 0.000, 0.000, 0.000, 11:51:48.946
1, -26918.85, -187500.02, 33438.92, 65026.52, 105233.33, 35837.49, -187500.02, -187500.02, 0.000, 0.000, 0.000, 11:51:48.946
2, -21565.14, -182963.17, 37620.67, 64988.52, 105301.66, 35888.43, -187500.02, -187500.02, 0.000, 0.000, 0.000, 11:51:48.946
3, -29989.45, -187500.02, 28421.43, 65861.63, 106370.34, 36945.27, -187500.02, -187500.02, 0.000, 0.000, 0.000, 11:51:48.947
4, -40393.27, -187500.02, 18537.15, 66345.14, 106878.04, 37455.80, -187500.02, -187500.02, 0.000, 0.000, 0.000, 11:51:48.948
5, -38906.65, -187500.02, 21281.52, 65904.74, 106241.59, 36848.50, -187500.02, -187500.02, 0.000, 0.000, 0.000, 11:51:48.948
6, -27079.74, -187500.02, 33577.32, 65007.36, 105206.33, 35816.97, -187500.02, -187500.02, 0.040, 0.964, -0.132, 11:51:48.948
7, -21306.58, -182557.95, 38338.74, 64945.81, 105266.52, 35853.27, -187500.02, -187500.02, 0.000, 0.000, 0.000, 11:51:48.949
8, -29993.22, -187500.02, 28148.71, 65855.19, 106380.64, 36961.87, -187500.02, -187500.02, 0.000, 0.000, 0.000, 11:51:48.950
9, -41004.68, -187500.02, 16592.84, 66386.96, 106940.30, 37532.78, -187500.02, -187500.02, 0.000, 0.000, 0.000, 11:51:48.950
10, -39523.16, -187500.02, 19150.62, 65909.32, 106284.30, 36889.23, -187500.02, -187500.02, 0.000, 0.000, 0.000, 11:51:48.951
11, -26855.82, -187500.02, 33574.80, 64912.73, 105154.09, 35763.97, -187500.02, -187500.02, 0.000, 0.000, 0.000, 11:51:48.952
12, -20391.25, -181889.48, 39795.11, 64831.70, 105184.13, 35779.73, -187500.02, -187500.02, 0.000, 0.000, 0.000, 11:51:48.952
13, -29456.29, -187500.02, 27665.16, 65873.63, 106425.86, 37010.82, -187500.02, -187500.02, 0.000, 0.000, 0.000, 11:51:48.953
14, -40997.05, -187500.02, 13728.62, 66435.08, 107034.74, 37615.82, -187500.02, -187500.02, 0.000, 0.000, 0.000, 11:51:48.953
15, -38949.37, -187500.02, 16977.58, 65825.08, 106325.88, 36910.30, -187500.02, -187500.02, 0.000, 0.000, 0.000, 11:51:48.954
16, -24340.27, -187372.50, 33800.69, 64641.54, 105089.02, 35673.00, -187500.02, -187500.02, 0.044, 0.958, -0.136, 11:51:48.954
17, -15598.57, -180886.61, 41080.23, 64478.41, 105074.27, 35644.50, -187500.02, -187500.02, 0.000, 0.000, 0.000, 11:51:48.954
18, -23098.49, -187500.02, 28288.84, 65546.47, 106361.06, 36925.26, -187500.02, -187500.02, 0.000, 0.000, 0.000, 11:51:48.955
19, -33259.95, -187500.02, 13504.68, 66123.68, 106986.76, 37541.70, -187500.02, -187500.02, 0.000, 0.000, 0.000, 11:51:48.955
20, -29175.08, -187500.02, 16854.47, 65520.89, 106249.62, 36785.85, -187500.02, -187500.02, 0.000, 0.000, 0.000, 11:51:48.955
21, -11871.79, -186226.84, 34527.95, 64307.22, 104948.70, 35470.81, -187500.02, -187500.02, 0.000, 0.000, 0.000, 11:51:48.956
22, -1192.53, -178780.91, 41761.77, 64202.86, 104937.16, 35459.79, -187500.02, -187500.02, 0.000, 0.000, 0.000, 11:51:48.956
23, -8352.29, -187500.02, 27749.42, 65436.47, 106329.34, 36863.90, -187500.02, -187500.02, 0.000, 0.000, 0.000, 11:51:48.956
24, -18925.47, -187500.02, 12708.04, 66041.34, 106975.53, 37513.25, -187500.02, -187500.02, 0.000, 0.000, 0.000, 11:51:48.957
25, -15221.74, -187500.02, 16809.56, 65422.64, 106225.57, 36756.50, -187500.02, -187500.02, 0.000, 0.000, 0.000, 11:51:48.957
26, 1316.83, -186270.20, 34007.78, 64187.70, 104883.55, 35411.91, -187500.02, -187500.02, 0.040, 0.972, -0.138, 11:51:48.958
27, 10607.67, -176494.48, 39572.55, 64128.74, 104914.26, 35439.00, -187500.02, -187500.02, 0.000, 0.000, 0.000, 11:51:48.958
28, 1789.21, -187500.02, 24823.18, 65437.77, 106397.63, 36932.61, -187500.02, -187500.02, 0.000, 0.000, 0.000, 11:51:48.958
29, -9979.92, -187500.02, 10773.45, 66006.29, 107002.47, 37559.94, -187500.02, -187500.02, 0.000, 0.000, 0.000, 11:51:48.959
30, -7624.25, -187500.02, 15876.58, 65394.34, 106227.91, 36808.32, -187500.02, -187500.02, 0.000, 0.000, 0.000, 11:51:48.959
31, 7250.23, -185612.88, 33097.75, 64210.28, 104916.05, 35498.59, -187500.02, -187500.02, 0.000, 0.000, 0.000, 11:51:48.959
32, 15114.56, -176562.03, 38007.82, 64189.54, 104970.85, 35562.27, -187500.02, -187500.02, 0.000, 0.000, 0.000, 11:51:48.960
33, 5391.15, -187500.02, 23418.32, 65451.72, 106395.10, 37003.49, -187500.02, -187500.02, 0.000, 0.000, 0.000, 11:51:48.960
34, -7324.29, -187500.02, 10128.38, 66024.10, 106999.27, 37622.93, -187500.02, -187500.02, 0.000, 0.000, 0.000, 11:51:48.962
35, -5850.01, -187500.02, 15683.70, 65410.99, 106215.13, 36852.15, -187500.02, -187500.02, 0.048, 0.962, -0.134, 11:51:48.964
36, 8569.37, -185548.63, 32675.19, 64230.93, 104890.97, 35538.25, -187500.02, -187500.02, 0.000, 0.000, 0.000, 11:51:48.964
37, 16603.90, -175899.22, 37451.02, 64193.29, 104931.47, 35572.93, -187500.02, -187500.02, 0.000, 0.000, 0.000, 11:51:48.965
38, 7271.49, -187366.22, 23339.40, 65475.52, 106373.20, 37025.64, -187500.02, -187500.02, 0.000, 0.000, 0.000, 11:51:48.965
39, -5025.63, -187500.02, 10681.00, 66028.41, 106954.62, 37618.27, -187500.02, -187500.02, 0.000, 0.000, 0.000, 11:51:48.966
40, -3216.26, -187500.02, 16043.14, 65429.01, 106206.41, 36878.57, -187500.02, -187500.02, 0.000, 0.000, 0.000, 11:51:48.966
41, 11818.26, -185725.27, 32298.40, 64241.66, 104897.74, 35577.88, -187500.02, -187500.02, 0.000, 0.000, 0.000, 11:51:48.967
42, 20950.31, -175482.13, 37089.72, 64141.35, 104873.29, 35552.66, -187500.02, -187500.02, 0.000, 0.000, 0.000, 11:51:48.967
43, 12304.77, -187171.63, 23454.71, 65431.18, 106317.52, 37012.79, -187500.02, -187500.02, 0.000, 0.000, 0.000, 11:51:48.967
44, 107.65, -187500.02, 11000.77, 65999.47, 106919.79, 37618.61, -187500.02, -187500.02, 0.000, 0.000, 0.000, 11:51:48.968
45, 1929.31, -187500.02, 16159.82, 65396.38, 106177.51, 36883.35, -187500.02, -187500.02, 0.058, 0.954, -0.128, 11:51:48.968
46, 17286.86, -186437.73, 32107.23, 64216.18, 104884.02, 35589.74, -187500.02, -187500.02, 0.000, 0.000, 0.000, 11:51:48.969
47, 26969.28, -176193.25, 36708.20, 64130.37, 104857.08, 35567.64, -187500.02, -187500.02, 0.000, 0.000, 0.000, 11:51:48.969
48, 18783.09, -187500.02, 23104.24, 65412.91, 106287.91, 36991.62, -187500.02, -187500.02, 0.000, 0.000, 0.000, 11:51:48.970
49, 6559.07, -187500.02, 10590.59, 65988.02, 106898.82, 37612.02, -187500.02, -187500.02, 0.000, 0.000, 0.000, 11:51:48.970
50, 8682.94, -187500.02, 15670.79, 65358.64, 106163.25, 36872.18, -187500.02, -187500.02, 0.000, 0.000, 0.000, 11:51:48.971
51, 25157.74, -186418.58, 31919.54, 64099.41, 104823.55, 35519.51, -187500.02, -187500.02, 0.000, 0.000, 0.000, 11:51:48.971
52, 36422.10, -174875.97, 36881.20, 63974.69, 104756.23, 35451.16, -187500.02, -187500.02, 0.000, 0.000, 0.000, 11:51:48.972
53, 29291.24, -186995.84, 22940.47, 65318.72, 106229.10, 36927.90, -187500.02, -187500.02, 0.000, 0.000, 0.000, 11:51:48.972
54, 18193.74, -187500.02, 9964.16, 65907.20, 106863.55, 37568.16, -187500.02, -187500.02, 0.000, 0.000, 0.000, 11:51:48.973
55, 22098.43, -187500.02, 15172.61, 65220.96, 106098.61, 36803.66, -187500.02, -187500.02, 0.076, 0.954, -0.122, 11:51:48.973
56, 41775.90, -186598.86, 32089.08, 63884.26, 104677.95, 35385.05, -187500.02, -187500.02, 0.000, 0.000, 0.000, 11:51:48.974
57, 56293.02, -172944.69, 37406.00, 63698.67, 104541.81, 35242.87, -187500.02, -187500.02, 0.000, 0.000, 0.000, 11:51:48.974
58, 48628.63, -185153.02, 21194.01, 65225.90, 106196.46, 36878.57, -187500.02, -187500.02, 0.000, 0.000, 0.000, 11:51:48.974
59, 32711.24, -187500.02, 4257.45, 66032.84, 107049.90, 37740.81, -187500.02, -187500.02, 0.000, 0.000, 0.000, 11:51:48.975
60, 32994.68, -187500.02, 10324.07, 65270.54, 106224.63, 36918.66, -187500.02, -187500.02, 0.000, 0.000, 0.000, 11:51:48.975
61, 54331.37, -187113.86, 32610.52, 63690.24, 104580.05, 35273.31, -187500.02, -187500.02, 0.000, 0.000, 0.000, 11:51:48.976
62, 71679.67, -172609.33, 39862.93, 63449.49, 104380.20, 35084.08, -187500.02, -187481.63, 0.000, 0.000, 0.000, 11:51:48.976
63, 64167.65, -184902.72, 21356.49, 65096.73, 106152.48, 36850.38, -187500.02, -187500.02, 0.000, 0.000, 0.000, 11:51:48.977
64, 48401.27, -187500.02, 5218.82, 65878.70, 107004.23, 37701.89, -187500.02, -187500.02, 0.000, 0.000, 0.000, 11:51:48.977
65, 49309.24, -187500.02, 13395.27, 65069.43, 106141.32, 36842.54, -187500.02, -187500.02, 0.076, 0.964, -0.104, 11:51:48.977
66, 68885.17, -187500.02, 33962.87, 63634.21, 104648.83, 35353.60, -187500.02, -187500.02, 0.000, 0.000, 0.000, 11:51:48.978
67, 83818.39, -173542.98, 39071.41, 63417.53, 104480.61, 35175.45, -187500.02, -187147.48, 0.000, 0.000, 0.000, 11:51:48.978
68, 75704.10, -185432.02, 22487.29, 64988.16, 106151.36, 36847.63, -187500.02, -187500.02, 0.000, 0.000, 0.000, 11:51:48.978
69, 59115.20, -187500.02, 8932.03, 65753.73, 106965.77, 37671.43, -187500.02, -187500.02, 0.000, 0.000, 0.000, 11:51:48.979
70, 58838.53, -187500.02, 16649.21, 65011.07, 106170.70, 36882.14, -187500.02, -187500.02, 0.000, 0.000, 0.000, 11:51:48.979
71, 79671.41, -187500.02, 35966.82, 63533.69, 104650.15, 35351.65, -187500.02, -187500.02, 0.000, 0.000, 0.000, 11:51:48.980
72, 98121.90, -173441.97, 40987.31, 63242.65, 104402.34, 35087.34, -187500.02, -186517.19, 0.000, 0.000, 0.000, 11:51:48.980
73, 91147.69, -185048.75, 24686.47, 64844.84, 106090.00, 36781.54, -187500.02, -187500.02, 0.000, 0.000, 0.000, 11:51:48.981
74, 71767.13, -187500.02, 11041.31, 65710.23, 106995.96, 37688.88, -187500.02, -187500.02, 0.000, 0.000, 0.000, 11:51:48.985
75, 70394.38, -187500.02, 18634.69, 64944.87, 106186.30, 36884.85, -187500.02, -187500.02, 0.062, 0.952, -0.090, 11:51:48.985
76, 93320.97, -187500.02, 37731.42, 63396.72, 104600.59, 35312.98, -187500.02, -187500.02, 0.000, 0.000, 0.000, 11:51:48.986
77, 111584.35, -170772.95, 42591.05, 63117.90, 104355.58, 35067.61, -187500.02, -185835.92, 0.000, 0.000, 0.000, 11:51:48.986
78, 99111.30, -182636.41, 26205.43, 64915.34, 106248.52, 36941.93, -187500.02, -187500.02, 0.000, 0.000, 0.000, 11:51:48.987
79, 72814.00, -187500.02, 12361.81, 65934.49, 107321.61, 38008.09, -187500.02, -187500.02, 0.000, 0.000, 0.000, 11:51:48.987
80, 66594.70, -187500.02, 19640.05, 65193.84, 106537.33, 37224.77, -187500.02, -187500.02, 0.000, 0.000, 0.000, 11:51:48.987
81, 88159.28, -187500.02, 39290.99, 63557.72, 104856.34, 35535.88, -187500.02, -187500.02, 0.000, 0.000, 0.000, 11:51:48.988
82, 106908.66, -169522.23, 45191.87, 63159.72, 104482.91, 35163.54, -187500.02, -186361.58, 0.000, 0.000, 0.000, 11:51:48.988
83, 93203.82, -181739.53, 28409.24, 65015.72, 106405.88, 37098.95, -187500.02, -187500.02, 0.000, 0.000, 0.000, 11:51:48.988
84, 64818.98, -187500.02, 13239.14, 66090.33, 107497.58, 38224.25, -187500.02, -187500.02, 0.048, 0.948, -0.080, 11:51:48.989
85, 57196.23, -187500.02, 20171.51, 65344.34, 106678.10, 37438.43, -187500.02, -187500.02, 0.000, 0.000, 0.000, 11:51:48.989
86, 77390.68, -187500.02, 40735.45, 63725.00, 104988.51, 35772.49, -187500.02, -187500.02, 0.000, 0.000, 0.000, 11:51:48.990
87, 93891.72, -169902.23, 47590.53, 63335.03, 104607.93, 35391.04, -187500.02, -187401.20, 0.000, 0.000, 0.000, 11:51:48.990
88, 77897.46, -182036.75, 30709.08, 65202.67, 106537.80, 37334.68, -187500.02, -187500.02, 0.000, 0.000, 0.000, 11:51:48.990
89, 48510.08, -187500.02, 14708.05, 66265.59, 107620.70, 38442.52, -187500.02, -187500.02, 0.000, 0.000, 0.000, 11:51:48.991
90, 41617.67, -187500.02, 21416.46, 65482.27, 106775.66, 37605.82, -187500.02, -187500.02, 0.000, 0.000, 0.000, 11:51:48.991
91, 63305.88, -187500.02, 42732.02, 63810.94, 105032.32, 35884.61, -187500.02, -187500.02, 0.000, 0.000, 0.000, 11:51:48.992
92, 80526.67, -169976.77, 50389.73, 63387.46, 104617.47, 35471.59, -187500.02, -187500.02, 0.000, 0.000, 0.000, 11:51:48.992
93, 64222.21, -181965.81, 33831.89, 65259.25, 106556.93, 37404.84, -187500.02, -187500.02, 0.000, 0.000, 0.000, 11:51:48.992
94, 33959.79, -187500.02, 17680.10, 66344.00, 107669.53, 38532.53, -187500.02, -187500.02, 0.050, 0.960, -0.084, 11:51:48.993
95, 26513.01, -187500.02, 23642.87, 65580.87, 106843.75, 37719.86, -187500.02, -187500.02, 0.000, 0.000, 0.000, 11:51:48.994
96, 48489.11, -187500.02, 44256.95, 63924.07, 105119.20, 36011.77, -187500.02, -187500.02, 0.000, 0.000, 0.000, 11:51:48.994
97, 66346.14, -170305.83, 52462.43, 63444.93, 104661.57, 35536.57, -187500.02, -187500.02, 0.000, 0.000, 0.000, 11:51:48.994
98, 49315.75, -182107.69, 36667.10, 65316.11, 106601.70, 37463.07, -187500.02, -187500.02, 0.000, 0.000, 0.000, 11:51:48.995
99, 17740.33, -187500.02, 20624.58, 66399.61, 107715.29, 38591.54, -187500.02, -187500.02, 0.000, 0.000, 0.000, 11:51:48.995
100, 9758.86, -187500.02, 26125.16, 65661.22, 106912.99, 37826.73, -187500.02, -187500.02, 0.000, 0.000, 0.000, 11:51:48.996
101, 29306.62, -187500.02, 45560.36, 64095.23, 105275.39, 36216.98, -187500.02, -187500.02, 0.000, 0.000, 0.000, 11:51:48.997
102, 39297.47, -169773.83, 53029.54, 63781.28, 104956.45, 35913.69, -187500.02, -187500.02, 0.000, 0.000, 0.000, 11:51:48.998
103, 16376.21, -181888.41, 37740.34, 65636.43, 106859.51, 37815.44, -187500.02, -187500.02, 0.000, 0.000, 0.000, 11:51:48.999
104, -9577.23, -187500.02, 21603.88, 66482.20, 107732.23, 38707.68, -187500.02, -187500.02, 0.054, 0.976, -0.090, 11:51:49.420
105, -6874.73, -187500.02, 26304.83, 65544.08, 106735.68, 37732.45, -187500.02, -187500.02, 0.000, 0.000, 0.000, 11:51:49.421
106, 18982.33, -187500.02, 47493.84, 63880.93, 105005.52, 36020.44, -187500.02, -187500.02, 0.000, 0.000, 0.000, 11:51:49.421
107, 34315.92, -168470.33, 58672.52, 63395.25, 104528.13, 35548.23, -187500.02, -187500.02, 0.000, 0.000, 0.000, 11:51:49.422
108, 18496.29, -180329.75, 43558.54, 65232.85, 106428.23, 37447.42, -187500.02, -187500.02, 0.000, 0.000, 0.000, 11:51:49.422
109, -5569.72, -187500.02, 23866.77, 66284.54, 107503.02, 38554.12, -187500.02, -187500.02, 0.000, 0.000, 0.000, 11:51:49.422
110, -3981.72, -187500.02, 25918.37, 65440.36, 106587.64, 37683.65, -187500.02, -187500.02, 0.000, 0.000, 0.000, 11:51:49.422
111, 27101.85, -187500.02, 47701.59, 63582.71, 104657.84, 35774.34, -187500.02, -187500.02, 0.000, 0.000, 0.000, 11:51:49.423
112, 53009.84, -166250.70, 60746.68, 62859.45, 103943.01, 35054.48, -187500.02, -187500.02, 0.000, 0.000, 0.000, 11:51:49.423
113, 45394.18, -177786.11, 46210.09, 64723.23, 105871.78, 36972.38, -187500.02, -187500.02, 0.000, 0.000, 0.000, 11:51:49.423
114, 20411.19, -187500.02, 25009.59, 66069.27, 107254.87, 38371.48, -187500.02, -187500.02, 0.062, 0.966, -0.086, 11:51:49.423
115, 16184.94, -187500.02, 25374.30, 65382.07, 106528.84, 37658.55, -187500.02, -187500.02, 0.000, 0.000, 0.000, 11:51:49.423
116, 42443.46, -187106.77, 47283.68, 63513.60, 104601.76, 35746.25, -187500.02, -187500.02, 0.000, 0.000, 0.000, 11:51:49.424
117, 62683.36, -164901.94, 61491.32, 62908.09, 103990.33, 35134.82, -187500.02, -187500.02, 0.000, 0.000, 0.000, 11:51:49.424
118, 42594.31, -177171.00, 46699.23, 65055.20, 106186.49, 37318.74, -187500.02, -187500.02, 0.000, 0.000, 0.000, 11:51:49.424
119, 11441.19, -187500.02, 24294.07, 66389.84, 107539.49, 38703.39, -187500.02, -187500.02, 0.000, 0.000, 0.000, 11:51:49.424
120, 8726.48, -187500.02, 24020.61, 65586.70, 106678.30, 37861.08, -187500.02, -187500.02, 0.000, 0.000, 0.000, 11:51:49.424
121, 30722.61, -187414.05, 46063.50, 63849.88, 104865.35, 36056.96, -187500.02, -187500.02, 0.000, 0.000, 0.000, 11:51:49.425
122, 39557.96, -165679.63, 60582.14, 63442.14, 104465.75, 35645.29, -187500.02, -187500.02, 0.000, 0.000, 0.000, 11:51:49.425
123, 18449.67, -177856.84, 46342.63, 65370.49, 106477.54, 37626.12, -187500.02, -187500.02, 0.000, 0.000, 0.000, 11:51:49.425
124, -4615.84, -187500.02, 24607.44, 66407.23, 107559.72, 38718.11, -187500.02, -187500.02, 0.058, 0.958, -0.072, 11:51:49.425
125, 1793.71, -187500.02, 25053.15, 65439.69, 106525.66, 37732.61, -187500.02, -187500.02, 0.000, 0.000, 0.000, 11:51:49.425
126, 32177.66, -186957.94, 47454.83, 63597.50, 104608.59, 35835.19, -187500.02, -187500.02, 0.000, 0.000, 0.000, 11:51:49.426
127, 45981.76, -164547.75, 62189.99, 63171.75, 104193.52, 35399.37, -187500.02, -187500.02, 0.000, 0.000, 0.000, 11:51:49.426
128, 23027.24, -176692.48, 48099.01, 65267.05, 106349.22, 37549.10, -187500.02, -187500.02, 0.000, 0.000, 0.000, 11:51:49.426
129, -6915.16, -187500.02, 27219.80, 66488.91, 107606.23, 38830.07, -187500.02, -187500.02, 0.000, 0.000, 0.000, 11:51:49.427
130, -9499.02, -187500.02, 27947.93, 65709.21, 106768.22, 38025.19, -187500.02, -187500.02, 0.000, 0.000, 0.000, 11:51:49.427
131, 11515.66, -187500.02, 48098.00, 64067.05, 105053.59, 36338.30, -187500.02, -187500.02, 0.000, 0.000, 0.000, 11:51:49.427
132, 26585.92, -166041.92, 59827.06, 63470.52, 104466.66, 35741.91, -187500.02, -187500.02, 0.000, 0.000, 0.000, 11:51:49.428
133, 12717.11, -177190.75, 46615.14, 65215.75, 106269.42, 37521.38, -187500.02, -187500.02, 0.000, 0.000, 0.000, 11:51:49.428
134, -9199.04, -187500.02, 29708.69, 66256.20, 107316.60, 38599.05, -187500.02, -187500.02, 0.062, 0.968, -0.062, 11:51:49.429
135, -332.75, -187500.02, 32392.73, 65285.44, 106284.93, 37596.06, -187500.02, -187500.02, 0.000, 0.000, 0.000, 11:51:49.429
136, 34040.12, -186982.66, 50012.56, 63533.71, 104481.20, 35797.48, -187500.02, -187500.02, 0.000, 0.000, 0.000, 11:51:49.429
137, 53391.25, -164181.97, 57994.88, 63110.08, 104057.72, 35368.55, -187500.02, -187500.02, 0.000, 0.000, 0.000, 11:51:49.430
138, 37496.52, -175389.55, 45109.68, 64976.70, 105985.77, 37281.23, -187500.02, -187500.02, 0.000, 0.000, 0.000, 11:51:49.430
139, 13576.47, -187500.02, 31025.65, 66097.30, 107131.48, 38450.09, -187500.02, -187500.02, 0.000, 0.000, 0.000, 11:51:49.431
140, 16251.86, -187500.02, 34309.08, 65260.77, 106251.98, 37579.74, -187500.02, -187500.02, 0.000, 0.000, 0.000, 11:51:49.431
141, 54274.55, -185626.00, 49350.37, 63345.45, 104274.80, 35627.20, -187500.02, -187500.02, 0.000, 0.000, 0.000, 11:51:49.432
142, 89016.83, -161355.34, 55080.08, 62612.04, 103539.06, 34882.22, -187500.02, -187478.30, 0.000, 0.000, 0.000, 11:51:49.432
143, 78563.77, -172283.64, 43430.06, 64595.06, 105583.13, 36900.70, -187500.02, -187500.02, 0.062, 0.958, -0.056, 11:51:49.432
144, 34664.18, -187500.02, 31927.97, 66348.02, 107377.73, 38695.76, -187500.02, -187500.02, 0.000, 0.000, 0.000, 11:51:49.433
145, 8957.44, -187500.02, 35460.89, 66013.46, 107016.62, 38347.84, -187500.02, -187500.02, 0.000, 0.000, 0.000, 11:51:49.433
146, 12781.75, -187500.02, 47676.34, 64792.74, 105762.13, 37091.15, -187500.02, -187500.02, 0.000, 0.000, 0.000, 11:51:49.433
147, 9323.63, -167132.17, 51179.39, 64508.99, 105492.88, 36809.99, -187500.02, -187500.02, 0.000, 0.000, 0.000, 11:51:49.433
148, -6122.23, -177783.38, 41595.61, 65704.83, 106744.95, 38052.95, -187500.02, -187500.02, 0.000, 0.000, 0.000, 11:51:49.434
149, -13252.33, -187500.02, 33427.05, 66119.05, 107195.25, 38504.03, -187500.02, -187500.02, 0.000, 0.000, 0.000, 11:51:49.434
150, -6862.30, -187500.02, 37120.68, 65461.66, 106491.95, 37816.27, -187500.02, -187500.02, 0.000, 0.000, 0.000, 11:51:49.434
151, 1557.60, -187500.02, 47180.64, 64568.06, 105542.56, 36879.26, -187500.02, -187500.02, 0.000, 0.000, 0.000, 11:51:49.434
152, 958.04, -167921.59, 49829.70, 64306.73, 105293.99, 36629.39, -187500.02, -187500.02, 0.000, 0.000, 0.000, 11:51:49.434
153, -7429.79, -177574.05, 41465.34, 65356.23, 106406.50, 37735.84, -187500.02, -187500.02, 0.044, 0.974, -0.054, 11:51:49.435
154, -12272.92, -187500.02, 34532.75, 65827.43, 106910.98, 38240.55, -187500.02, -187500.02, 0.000, 0.000, 0.000, 11:51:49.435
155, -6828.73, -187500.02, 37874.76, 65293.71, 106332.97, 37667.23, -187500.02, -187500.02, 0.000, 0.000, 0.000, 11:51:49.435
156, 2240.38, -187500.02, 46929.83, 64437.17, 105423.16, 36764.33, -187500.02, -187500.02, 0.000, 0.000, 0.000, 11:51:49.435
157, 1537.06, -167699.81, 49154.64, 64202.41, 105195.48, 36534.84, -187500.02, -187500.02, 0.000, 0.000, 0.000, 11:51:49.435
158, -8520.95, -177072.33, 40875.59, 65303.14, 106358.58, 37692.24, -187500.02, -187500.02, 0.000, 0.000, 0.000, 11:51:49.436
159, -15520.49, -187500.02, 34156.15, 65844.57, 106926.02, 38286.04, -187500.02, -187500.02, 0.000, 0.000, 0.000, 11:51:49.436
160, -12171.17, -187500.02, 37743.60, 65341.66, 106360.51, 37749.03, -187500.02, -187500.02, 0.000, 0.000, 0.000, 11:51:49.436
161, -4652.90, -187500.02, 46676.68, 64523.92, 105473.56, 36884.80, -187500.02, -187500.02, 0.000, 0.000, 0.000, 11:51:49.436
162, -6540.25, -168349.69, 48625.73, 64297.11, 105262.32, 36657.17, -187500.02, -187500.02, 0.000, 0.000, 0.000, 11:51:49.437
163, -20075.67, -177560.91, 40380.41, 65423.53, 106473.76, 37835.11, -187500.02, -187500.02, 0.042, 0.970, -0.052, 11:51:49.437
164, -30870.51, -187500.02, 33886.43, 65959.08, 107050.73, 38425.29, -187500.02, -187500.02, 0.000, 0.000, 0.000, 11:51:49.437
165, -24094.49, -187500.02, 37694.94, 65303.70, 106334.33, 37751.85, -187500.02, -187500.02, 0.000, 0.000, 0.000, 11:51:49.437
166, -7571.25, -187500.02, 46830.32, 64301.77, 105272.00, 36711.55, -187500.02, -187500.02, 0.000, 0.000, 0.000, 11:51:49.438
167, -4172.04, -168113.83, 48792.83, 64058.31, 105042.66, 36471.65, -187500.02, -187500.02, 0.000, 0.000, 0.000, 11:51:49.438
168, -17050.51, -177110.28, 40099.00, 65284.84, 106335.80, 37755.14, -187500.02, -187500.02, 0.000, 0.000, 0.000, 11:51:49.438
169, -26036.92, -187500.02, 32724.36, 65842.80, 106928.80, 38352.57, -187500.02, -187500.02, 0.000, 0.000, 0.000, 11:51:49.439
170, -19156.74, -187500.02, 36358.15, 65211.28, 106252.55, 37683.05, -187500.02, -187500.02, 0.000, 0.000, 0.000, 11:51:49.439
171, -5453.04, -187500.02, 46361.56, 64251.72, 105238.98, 36675.32, -187500.02, -187500.02, 0.000, 0.000, 0.000, 11:51:49.439
172, -3118.05, -167560.83, 49401.04, 63981.44, 104989.63, 36401.02, -187500.02, -187500.02, 0.000, 0.000, 0.000, 11:51:49.440
173, -13656.71, -176319.30, 40372.88, 65151.24, 106242.02, 37620.73, -187500.02, -187500.02, 0.052, 0.950, -0.046, 11:51:49.440
174, -20849.64, -187500.02, 31560.57, 65748.57, 106900.01, 38266.05, -187500.02, -187500.02, 0.000, 0.000, 0.000, 11:51:49.440
175, -14101.13, -187500.02, 35223.40, 65122.92, 106244.92, 37629.16, -187500.02, -187500.02, 0.000, 0.000, 0.000, 11:51:49.440
176, -192.29, -187500.02, 47615.03, 64063.25, 105126.24, 36536.18, -187500.02, -187500.02, 0.000, 0.000, 0.000, 11:51:49.441
177, 1867.40, -166553.08, 51913.02, 63814.86, 104897.74, 36290.54, -187500.02, -187500.02, 0.000, 0.000, 0.000, 11:51:49.441
178, -11159.35, -175479.73, 40706.86, 65154.24, 106318.05, 37685.66, -187500.02, -187500.02, 0.000, 0.000, 0.000, 11:51:49.441
179, -20038.94, -187500.02, 29417.53, 65816.41, 107021.80, 38396.68, -187500.02, -187500.02, 0.000, 0.000, 0.000, 11:51:49.441
180, -14115.22, -187500.02, 32880.29, 65158.20, 106323.24, 37719.84, -187500.02, -187500.02, 0.000, 0.000, 0.000, 11:51:49.441
181, -2732.25, -187500.02, 47383.89, 64095.03, 105201.43, 36613.92, -187500.02, -187500.02, 0.000, 0.000, 0.000, 11:51:49.442
182, -2103.72, -166527.13, 53581.67, 63826.66, 104944.25, 36347.73, -187500.02, -187500.02, 0.000, 0.000, 0.000, 11:51:49.442
183, -13351.97, -175065.55, 41560.88, 65141.23, 106338.20, 37719.37, -187500.02, -187500.02, 0.056, 0.976, -0.048, 11:51:49.442
184, -20807.15, -187500.02, 28008.75, 65844.68, 107097.13, 38487.07, -187500.02, -187500.02, 0.000, 0.000, 0.000, 11:51:49.442
185, -14753.49, -187500.02, 30866.35, 65182.40, 106402.66, 37817.94, -187500.02, -187500.02, 0.000, 0.000, 0.000, 11:51:49.443
186, -2788.16, -187500.02, 46844.98, 64030.91, 105202.41, 36624.76, -187500.02, -187500.02, 0.000, 0.000, 0.000, 11:51:49.443
187, -1345.19, -166256.98, 54578.00, 63698.82, 104880.55, 36289.57, -187500.02, -187500.02, 0.000, 0.000, 0.000, 11:51:49.444
188, -12038.45, -174413.92, 42320.81, 65049.12, 106300.73, 37695.23, -187500.02, -187500.02, 0.000, 0.000, 0.000, 11:51:49.444
189, -19321.45, -187500.02, 27784.13, 65807.98, 107093.82, 38517.04, -187500.02, -187500.02, 0.000, 0.000, 0.000, 11:51:49.444
190, -13806.05, -187500.02, 30437.69, 65170.15, 106402.39, 37860.68, -187500.02, -187500.02, 0.000, 0.000, 0.000, 11:51:49.445
191, -2139.29, -187500.02, 46711.66, 64022.57, 105189.02, 36669.55, -187500.02, -187500.02, 0.000, 0.000, 0.000, 11:51:49.445
192, -374.30, -165852.63, 54606.18, 63686.96, 104864.14, 36329.59, -187500.02, -187500.02, 0.000, 0.000, 0.000, 11:51:49.445
193, -11102.00, -173769.88, 42247.54, 65044.00, 106297.83, 37742.68, -187500.02, -187500.02, 0.062, 0.968, -0.046, 11:51:49.446
194, -18692.09, -187500.02, 27765.67, 65820.70, 107117.05, 38571.55, -187500.02, -187500.02, 0.000, 0.000, 0.000, 11:51:49.446
195, -13474.35, -187500.02, 30493.03, 65171.02, 106434.00, 37894.54, -187500.02, -187500.02, 0.000, 0.000, 0.000, 11:51:49.447
196, -2745.93, -187500.02, 46666.82, 64037.14, 105258.49, 36709.09, -187500.02, -187500.02, 0.000, 0.000, 0.000, 11:51:49.448
197, -1817.62, -165577.92, 54320.30, 63710.61, 104940.97, 36380.97, -187500.02, -187500.02, 0.000, 0.000, 0.000, 11:51:49.448
198, -12355.19, -173293.16, 41981.52, 65036.62, 106347.65, 37755.09, -187500.02, -187500.02, 0.000, 0.000, 0.000, 11:51:49.448
199, -19815.25, -187500.02, 27737.96, 65810.15, 107166.20, 38588.59, -187500.02, -187500.02, 0.000, 0.000, 0.000, 11:51:49.449
200, -15806.91, -187500.02, 30474.75, 65202.74, 106523.74, 37975.57, -187500.02, -187500.02, 0.000, 0.000, 0.000, 11:51:49.449
201, -5782.49, -187500.02, 46452.15, 64074.94, 105346.02, 36810.89, -187500.02, -187500.02, 0.000, 0.000, 0.000, 11:51:49.449
202, -3641.52, -165550.63, 53849.84, 63673.21, 104969.98, 36413.14, -187500.02, -187500.02, 0.052, 0.980, -0.056, 11:51:49.450
203, -12090.66, -172842.38, 41684.44, 64938.99, 106296.34, 37743.80, -187500.02, -187500.02, 0.000, 0.000, 0.000, 11:51:49.450
204, -18546.63, -187500.02, 27771.59, 65714.77, 107125.98, 38580.50, -187500.02, -187500.02, 0.000, 0.000, 0.000, 11:51:49.450
205, -13957.41, -187500.02, 30839.28, 65104.91, 106487.71, 37952.79, -187500.02, -187500.02, 0.000, 0.000, 0.000, 11:51:49.450
206, -3620.13, -187500.02, 47250.42, 63985.58, 105317.80, 36792.91, -187500.02, -187500.02, 0.000, 0.000, 0.000, 11:51:49.451
207, -1467.08, -165138.69, 55021.75, 63592.95, 104937.77, 36393.69, -187500.02, -187500.02, 0.000, 0.000, 0.000, 11:51:49.451
208, -11894.84, -172239.61, 43434.11, 64903.61, 106326.20, 37760.63, -187500.02, -187500.02, 0.000, 0.000, 0.000, 11:51:49.451
209, -21449.94, -187500.02, 30327.18, 65747.50, 107213.89, 38674.48, -187500.02, -187500.02, 0.000, 0.000, 0.000, 11:51:49.451
210, -17870.51, -187500.02, 33270.01, 65134.19, 106569.07, 38050.45, -187500.02, -187500.02, 0.000, 0.000, 0.000, 11:51:49.451
211, -6491.42, -187500.02, 48148.07, 63994.54, 105372.40, 36868.71, -187500.02, -187500.02, 0.000, 0.000, 0.000, 11:51:49.452
212, -3529.39, -165075.94, 54744.92, 63599.23, 104992.80, 36467.45, -187500.02, -187500.02, 0.052, 0.978, -0.064, 11:51:49.452
213, -13624.30, -171880.70, 43163.79, 64869.63, 106348.10, 37798.21, -187500.02, -187500.02, 0.000, 0.000, 0.000, 11:51:49.452
214, -22850.59, -187500.02, 30387.22, 65692.63, 107224.94, 38693.50, -187500.02, -187500.02, 0.000, 0.000, 0.000, 11:51:49.453
215, -19875.08, -187500.02, 33305.75, 65112.06, 106609.37, 38101.27, -187500.02, -187500.02, 0.000, 0.000, 0.000, 11:51:49.453
216, -10706.91, -187500.02, 47829.80, 64043.22, 105473.54, 36984.22, -187500.02, -187500.02, 0.000, 0.000, 0.000, 11:51:49.454
217, -9640.44, -165283.44, 54325.64, 63650.97, 105098.81, 36590.88, -187500.02, -187500.02, 0.000, 0.000, 0.000, 11:51:49.454
218, -18467.61, -171849.23, 42454.45, 64879.58, 106398.57, 37871.54, -187500.02, -187500.02, 0.000, 0.000, 0.000, 11:51:49.455
219, -25069.36, -187500.02, 28404.51, 65675.93, 107243.63, 38722.81, -187500.02, -187500.02, 0.000, 0.000, 0.000, 11:51:49.455
220, -21681.73, -187500.02, 30741.56, 65103.32, 106645.17, 38139.63, -187500.02, -187500.02, 0.000, 0.000, 0.000, 11:51:49.455
221, -13268.15, -187500.02, 46426.83, 64014.81, 105507.80, 37009.59, -187500.02, -187500.02, 0.000, 0.000, 0.000, 11:51:49.455
222, -13015.13, -165222.02, 54119.92, 63622.54, 105115.69, 36597.98, -187500.02, -187500.02, 0.068, 0.958, -0.050, 11:51:49.456
223, -21102.97, -171537.08, 42137.82, 64834.94, 106396.27, 37852.66, -187500.02, -187500.02, 0.000, 0.000, 0.000, 11:51:49.456
224, -26124.03, -187500.02, 27582.59, 65636.72, 107252.18, 38722.54, -187500.02, -187500.02, 0.000, 0.000, 0.000, 11:51:49.901
225, -22057.66, -187500.02, 29842.66, 65072.59, 106659.37, 38139.20, -187500.02, -187500.02, 0.000, 0.000, 0.000, 11:51:49.902
226, -14158.64, -187500.02, 45927.04, 64004.57, 105544.40, 37019.02, -187500.02, -187500.02, 0.000, 0.000, 0.000, 11:51:49.902
227, -13456.98, -165131.36, 54291.36, 63554.01, 105106.19, 36564.19, -187500.02, -187500.02, 0.000, 0.000, 0.000, 11:51:49.902
228, -20427.44, -171006.91, 42187.93, 64754.21, 106373.60, 37818.86, -187500.02, -187500.02, 0.000, 0.000, 0.000, 11:51:49.902
229, -24776.60, -187500.02, 27024.11, 65589.72, 107269.57, 38708.48, -187500.02, -187500.02, 0.000, 0.000, 0.000, 11:51:49.903
230, -21462.61, -187500.02, 28984.62, 65047.51, 106708.30, 38167.26, -187500.02, -187500.02, 0.000, 0.000, 0.000, 11:51:49.903
231, -15057.99, -187500.02, 45184.96, 63993.42, 105621.22, 37078.32, -187500.02, -187500.02, 0.000, 0.000, 0.000, 11:51:49.903
232, -15093.55, -165302.16, 53330.86, 63546.54, 105198.88, 36633.86, -187500.02, -187500.02, 0.056, 0.968, -0.044, 11:51:49.904
233, -22057.51, -170829.97, 41391.54, 64720.32, 106446.34, 37855.20, -187500.02, -187500.02, 0.000, 0.000, 0.000, 11:51:49.904
234, -26461.40, -187500.02, 27229.32, 65523.38, 107302.49, 38727.14, -187500.02, -187500.02, 0.000, 0.000, 0.000, 11:51:49.904
235, -23126.95, -187500.02, 29680.12, 64993.37, 106748.69, 38195.96, -187500.02, -187500.02, 0.000, 0.000, 0.000, 11:51:49.905
236, -16391.14, -187500.02, 44713.95, 63983.05, 105686.38, 37138.96, -187500.02, -187500.02, 0.000, 0.000, 0.000, 11:51:49.905
237, -15851.23, -165475.45, 51690.42, 63540.62, 105243.79, 36689.23, -187500.02, -187500.02, 0.000, 0.000, 0.000, 11:51:49.905
238, -21953.53, -170593.30, 40362.58, 64649.71, 106420.95, 37853.75, -187500.02, -187500.02, 0.000, 0.000, 0.000, 11:51:49.905
239, -25688.88, -187500.02, 27515.13, 65442.08, 107258.33, 38711.88, -187500.02, -187500.02, 0.000, 0.000, 0.000, 11:51:49.905
240, -22409.61, -187500.02, 30153.53, 64954.93, 106737.91, 38209.10, -187500.02, -187500.02, 0.000, 0.000, 0.000, 11:51:49.906
241, -16023.45, -187500.02, 44442.06, 63987.52, 105696.99, 37184.11, -187500.02, -187500.02, 0.000, 0.000, 0.000, 11:51:49.906
242, -15296.91, -165334.02, 50910.01, 63539.95, 105249.27, 36722.89, -187500.02, -187500.02, 0.056, 0.958, -0.048, 11:51:49.906
243, -20586.27, -170198.84, 39981.04, 64628.64, 106397.02, 37858.78, -187500.02, -187500.02, 0.000, 0.000, 0.000, 11:51:49.906
244, -23787.98, -187500.02, 27604.27, 65428.96, 107247.42, 38727.14, -187500.02, -187500.02, 0.000, 0.000, 0.000, 11:51:49.906
245, -20487.50, -187500.02, 30242.51, 64943.50, 106740.26, 38231.94, -187500.02, -187500.02, 0.000, 0.000, 0.000, 11:51:49.907
246, -14395.44, -187500.02, 44288.66, 63976.10, 105726.74, 37218.31, -187500.02, -187500.02, 0.000, 0.000, 0.000, 11:51:49.907
247, -13849.92, -165498.70, 50695.23, 63518.87, 105275.05, 36755.88, -187500.02, -187500.02, 0.000, 0.000, 0.000, 11:51:49.907
248, -19194.36, -169984.03, 40326.75, 64580.25, 106404.83, 37870.85, -187500.02, -187500.02, 0.000, 0.000, 0.000, 11:51:49.907
249, -22500.74, -187500.02, 28665.31, 65367.85, 107256.88, 38723.75, -187500.02, -187500.02, 0.000, 0.000, 0.000, 11:51:49.907
250, -19275.63, -187500.02, 31331.62, 64893.32, 106759.82, 38246.89, -187500.02, -187500.02, 0.000, 0.000, 0.000, 11:51:49.908
251, -13191.40, -187500.02, 44547.90, 63951.69, 105767.47, 37267.53, -187500.02, -187500.02, 0.052, 0.974, -0.050, 11:51:49.908
252, -12593.44, -165638.09, 50297.26, 63483.63, 105318.42, 36795.24, -187500.02, -187500.02, 0.000, 0.000, 0.000, 11:51:49.908
253, -17881.39, -169719.38, 39940.69, 64532.52, 106445.95, 37896.24, -187500.02, -187500.02, 0.000, 0.000, 0.000, 11:51:49.908
254, -21136.05, -187500.02, 28469.06, 65325.88, 107297.60, 38751.53, -187500.02, -187500.02, 0.000, 0.000, 0.000, 11:51:49.908
255, -18025.70, -187500.02, 30943.60, 64871.09, 106811.30, 38294.66, -187500.02, -187500.02, 0.000, 0.000, 0.000, 11:51:49.909
0, -11968.13, -187500.02, 43778.75, 63930.86, 105820.27, 37310.07, -187500.02, -187500.02, 0.000, 0.000, 0.000, 11:51:49.909
1, -11097.33, -165755.19, 49589.91, 63435.10, 105332.73, 36802.86, -187500.02, -187500.02, 0.000, 0.000, 0.000, 11:51:49.909
2, -16462.15, -169444.30, 39619.32, 64462.79, 106419.18, 37884.11, -187500.02, -187500.02, 0.000, 0.000, 0.000, 11:51:49.910
3, -19955.73, -187500.02, 28457.93, 65267.25, 107289.13, 38759.82, -187500.02, -187500.02, 0.000, 0.000, 0.000, 11:51:49.910
4, -16857.44, -187500.02, 30777.39, 64822.31, 106835.88, 38319.18, -187500.02, -187500.02, 0.000, 0.000, 0.000, 11:51:49.910
5, -10692.98, -187500.02, 43287.46, 63900.39, 105873.59, 37360.43, -187500.02, -187500.02, 0.056, 0.978, -0.052, 11:51:49.911
6, -9809.29, -165841.05, 49024.06, 63385.48, 105367.75, 36843.27, -187500.02, -187500.02, 0.000, 0.000, 0.000, 11:51:49.911
7, -15033.36, -169084.33, 39423.78, 64385.74, 106446.52, 37888.84, -187500.02, -187500.02, 0.000, 0.000, 0.000, 11:51:49.911
8, -18691.58, -187500.02, 28425.65, 65213.58, 107346.48, 38781.86, -187500.02, -187500.02, 0.000, 0.000, 0.000, 11:51:49.912
9, -15730.60, -187500.02, 30695.52, 64768.67, 106899.07, 38339.54, -187500.02, -187500.02, 0.000, 0.000, 0.000, 11:51:49.912
10, -9347.19, -187500.02, 43211.62, 63833.38, 105930.26, 37369.99, -187500.02, -187500.02, 0.000, 0.000, 0.000, 11:51:49.912
11, -8690.94, -165542.48, 48959.64, 63306.87, 105429.40, 36847.39, -187500.02, -187500.02, 0.000, 0.000, 0.000, 11:51:49.913
12, -15190.83, -168689.41, 39221.63, 64327.34, 106539.41, 37930.28, -187500.02, -187500.02, 0.000, 0.000, 0.000, 11:51:49.913
13, -20462.17, -187500.02, 27963.55, 65177.21, 107479.39, 38859.76, -187500.02, -187500.02, 0.000, 0.000, 0.000, 11:51:49.913
14, -18384.22, -187500.02, 30165.22, 64712.95, 107038.21, 38419.25, -187500.02, -187500.02, 0.000, 0.000, 0.000, 11:51:49.914
15, -11635.04, -187500.02, 43529.20, 63708.01, 106009.20, 37393.77, -187500.02, -187500.02, 0.048, 0.974, -0.074, 11:51:49.914
16, -10739.95, -165791.06, 50254.34, 63155.68, 105484.65, 36843.34, -187500.02, -187500.02, 0.000, 0.000, 0.000, 11:51:49.915
17, -18980.90, -168786.75, 39668.51, 64247.09, 106672.80, 37984.71, -187500.02, -187500.02, 0.000, 0.000, 0.000, 11:51:49.915
18, -25360.31, -187500.02, 26268.87, 65106.74, 107622.84, 38916.13, -187500.02, -187500.02, 0.000, 0.000, 0.000, 11:51:49.915
19, -21790.60, -187500.02, 27790.21, 64568.42, 107088.92, 38382.21, -187500.02, -187500.02, 0.000, 0.000, 0.000, 11:51:49.915
20, -12504.10, -187500.02, 43069.30, 63482.55, 105955.29, 37259.62, -187500.02, -187500.02, 0.000, 0.000, 0.000, 11:51:49.916
21, -8891.21, -165958.92, 52268.30, 62849.28, 105331.36, 36634.35, -187500.02, -187500.02, 0.000, 0.000, 0.000, 11:51:49.916
22, -12942.31, -167836.92, 41290.29, 63889.93, 106448.23, 37729.27, -187500.02, -187500.02, 0.000, 0.000, 0.000, 11:51:49.916
23, -15179.90, -187500.02, 25615.12, 64819.48, 107422.21, 38699.07, -187500.02, -187500.02, 0.000, 0.000, 0.000, 11:51:49.916
24, -10544.52, -187500.02, 26201.61, 64416.36, 106956.63, 38247.77, -187500.02, -187500.02, 0.000, 0.000, 0.000, 11:51:49.917
25, -3753.80, -187500.02, 42631.35, 63480.47, 105855.76, 37169.47, -187500.02, -187500.02, 0.022, 0.984, -0.040, 11:51:49.917
26, -2236.45, -166715.36, 53344.29, 62927.38, 105206.87, 36528.40, -187500.02, -187500.02, 0.000, 0.000, 0.000, 11:51:49.917
27, -5579.62, -167807.22, 41913.95, 64001.56, 106287.46, 37594.40, -187500.02, -187500.02, 0.000, 0.000, 0.000, 11:51:49.917
28, -6269.15, -187500.02, 23602.93, 65058.80, 107324.53, 38635.32, -187500.02, -187500.02, 0.000, 0.000, 0.000, 11:51:49.918
29, -1898.58, -187500.02, 23052.87, 64714.94, 106861.05, 38196.61, -187500.02, -187500.02, 0.000, 0.000, 0.000, 11:51:49.918
30, 6039.96, -187500.02, 42082.59, 63607.77, 105612.37, 36968.35, -187500.02, -187500.02, 0.000, 0.000, 0.000, 11:51:49.918
31, 20547.13, -166622.09, 56370.18, 62634.21, 104559.87, 35937.43, -187500.02, -187500.02, 0.000, 0.000, 0.000, 11:51:49.918
32, 30784.12, -166395.41, 44962.14, 63591.74, 105513.28, 36877.25, -187500.02, -187500.02, 0.000, 0.000, 0.000, 11:51:49.918
33, 28949.89, -187500.02, 23876.89, 64950.64, 106878.13, 38212.16, -187500.02, -187500.02, 0.000, 0.000, 0.000, 11:51:49.919
34, 30079.68, -187500.02, 21935.98, 64783.54, 106595.48, 37902.21, -187500.02, -187500.02, 0.000, 0.000, 0.000, 11:51:49.919
35, 33253.11, -187500.02, 42682.44, 63638.16, 105331.32, 36579.03, -187500.02, -187500.02, 0.032, 0.958, -0.034, 11:51:49.919
36, 38655.55, -165724.88, 59356.24, 62867.30, 104531.23, 35685.07, -187500.02, -187500.02, 0.000, 0.000, 0.000, 11:51:49.919
37, 41509.89, -165881.95, 48302.21, 63896.84, 105550.95, 36602.61, -187500.02, -187500.02, 0.000, 0.000, 0.000, 11:51:49.920
38, 42389.43, -187044.59, 26536.35, 65143.38, 106766.81, 37729.34, -187500.02, -187500.02, 0.000, 0.000, 0.000, 11:51:49.920
39, 50486.87, -187500.02, 24687.23, 64757.72, 106319.22, 37182.55, -187500.02, -187500.02, 0.000, 0.000, 0.000, 11:51:49.920
40, 69231.98, -184116.16, 46280.16, 63189.70, 104693.49, 35435.54, -187500.02, -187500.02, 0.000, 0.000, 0.000, 11:51:49.921
41, 87181.92, -166663.14, 62195.65, 62514.54, 103992.78, 34656.02, -187388.34, -184654.73, 0.000, 0.000, 0.000, 11:51:49.921
42, 93269.40, -168984.75, 50546.41, 63667.85, 105139.61, 35774.19, -187500.02, -185583.89, 0.000, 0.000, 0.000, 11:51:49.921
43, 91402.29, -183958.25, 29195.29, 64955.06, 106400.65, 37033.57, -187500.02, -187500.02, 0.000, 0.000, 0.000, 11:51:49.922
44, 94314.03, -187500.02, 27610.19, 64704.79, 106106.43, 36748.08, -187500.02, -187500.02, 0.000, 0.000, 0.000, 11:51:49.922
45, 106770.91, -179978.08, 47927.44, 63377.72, 104727.35, 35371.99, -187500.02, -187500.02, 0.052, 0.940, -0.032, 11:51:49.922
46, 120072.88, -166950.52, 61600.42, 62880.33, 104194.58, 34831.64, -185612.72, -183201.81, 0.000, 0.000, 0.000, 11:51:49.923
47, 123236.96, -168477.66, 49711.30, 63959.61, 105262.85, 35912.50, -187048.80, -184320.64, 0.000, 0.000, 0.000, 11:51:49.923
48, 119324.16, -180475.94, 31133.95, 65074.49, 106374.34, 37046.96, -187500.02, -187500.02, 0.000, 0.000, 0.000, 11:51:49.923
49, 119533.84, -186062.80, 31742.90, 64855.77, 106135.96, 36828.32, -187500.02, -187500.02, 0.000, 0.000, 0.000, 11:51:49.923
50, 128152.07, -177695.45, 49345.12, 63728.69, 104977.78, 35687.11, -187500.02, -187329.20, 0.000, 0.000, 0.000, 11:51:49.923
51, 137641.34, -166927.16, 58201.04, 63356.40, 104569.77, 35292.64, -185299.58, -183181.02, 0.000, 0.000, 0.000, 11:51:49.924
52, 138830.95, -168387.06, 47663.55, 64284.44, 105477.45, 36208.95, -186801.77, -184360.00, 0.000, 0.000, 0.000, 11:51:49.924
53, 134014.22, -178853.56, 34703.88, 65232.63, 106421.16, 37158.97, -187500.02, -187500.02, 0.000, 0.000, 0.000, 11:51:49.924
54, 132795.16, -183824.16, 36492.89, 65047.08, 106237.13, 36983.66, -187500.02, -187500.02, 0.066, 0.944, -0.050, 11:51:49.924
55, 139282.72, -176741.50, 49612.87, 64087.30, 105263.10, 36020.21, -187500.02, -187500.02, 0.000, 0.000, 0.000, 11:51:49.924
56, 146966.00, -167411.92, 55971.09, 63720.13, 104867.38, 35630.60, -185730.45, -183760.19, 0.000, 0.000, 0.000, 11:51:49.924
57, 147395.17, -168693.39, 47323.52, 64525.37, 105650.37, 36416.38, -187134.98, -184857.48, 0.000, 0.000, 0.000, 11:51:49.925
58, 142195.31, -177984.56, 36774.32, 65392.02, 106515.71, 37275.27, -187500.02, -187500.02, 0.000, 0.000, 0.000, 11:51:49.925
59, 140081.42, -182577.42, 38397.90, 65252.77, 106372.87, 37137.20, -187500.02, -187500.02, 0.000, 0.000, 0.000, 11:51:49.925
60, 145126.72, -176511.42, 49145.47, 64396.98, 105494.71, 36270.46, -187500.02, -187500.02, 0.000, 0.000, 0.000, 11:51:49.925
61, 151263.92, -168330.22, 54064.15, 64076.73, 105157.53, 35919.34, -186524.81, -184702.22, 0.000, 0.000, 0.000, 11:51:49.925
62, 150831.05, -169483.89, 46895.14, 64781.34, 105858.28, 36603.84, -187500.02, -185782.19, 0.000, 0.000, 0.000, 11:51:49.926
63, 145280.64, -177741.77, 38491.40, 65547.07, 106617.10, 37376.90, -187500.02, -187500.02, 0.000, 0.000, 0.000, 11:51:49.926
64, 142490.89, -181984.81, 39874.30, 65432.52, 106493.90, 37266.14, -187500.02, -187500.02, 0.070, 0.956, -0.064, 11:51:49.926
65, 146384.83, -176806.92, 48653.27, 64669.99, 105715.95, 36498.30, -187500.02, -187500.02, 0.000, 0.000, 0.000, 11:51:49.926
66, 151685.17, -169496.73, 52921.29, 64347.92, 105368.31, 36156.49, -187500.02, -185869.64, 0.000, 0.000, 0.000, 11:51:49.927
67, 150988.63, -170368.20, 47259.97, 64954.12, 105967.76, 36741.82, -187500.02, -186830.16, 0.000, 0.000, 0.000, 11:51:49.927
68, 145464.20, -177774.02, 40216.51, 65656.26, 106677.01, 37449.63, -187500.02, -187500.02, 0.000, 0.000, 0.000, 11:51:49.927
69, 142323.63, -181744.64, 41185.41, 65586.19, 106598.08, 37384.36, -187500.02, -187500.02, 0.000, 0.000, 0.000, 11:51:49.927
70, 145367.06, -177229.97, 48524.14, 64905.71, 105909.67, 36691.53, -187500.02, -187500.02, 0.000, 0.000, 0.000, 11:51:49.927
71, 150012.52, -170587.75, 52243.54, 64587.46, 105579.98, 36356.21, -187500.02, -187055.80, 0.000, 0.000, 0.000, 11:51:49.928
72, 149491.23, -171218.88, 47609.88, 65118.00, 106104.76, 36869.60, -187500.02, -187500.02, 0.000, 0.000, 0.000, 11:51:49.928
73, 144550.36, -177880.94, 41872.73, 65764.17, 106750.77, 37519.55, -187500.02, -187500.02, 0.000, 0.000, 0.000, 11:51:49.928
74, 141585.47, -181602.83, 42728.09, 65708.34, 106679.91, 37474.71, -187500.02, -187500.02, 0.060, 0.972, -0.086, 11:51:49.928
75, 144223.44, -177583.80, 49021.71, 65067.31, 106018.37, 36832.61, -187500.02, -187500.02, 0.000, 0.000, 0.000, 11:51:49.929
76, 148405.55, -171449.42, 52237.77, 64751.06, 105690.53, 36501.76, -187500.02, -187500.02, 0.000, 0.000, 0.000, 11:51:49.929
77, 147646.70, -171915.16, 48142.48, 65243.22, 106176.28, 36978.08, -187500.02, -187500.02, 0.000, 0.000, 0.000, 11:51:49.929
78, 142568.23, -178080.25, 42880.99, 65861.98, 106806.40, 37596.75, -187500.02, -187500.02, 0.000, 0.000, 0.000, 11:51:49.930
79, 139308.30, -181671.22, 43464.17, 65826.73, 106764.87, 37573.59, -187500.02, -187500.02, 0.000, 0.000, 0.000, 11:51:49.930
80, 141277.42, -178121.36, 48916.81, 65226.21, 106148.72, 36970.93, -187500.02, -187500.02, 0.000, 0.000, 0.000, 11:51:49.931
81, 144887.52, -172413.02, 51790.96, 64900.84, 105809.66, 36627.82, -187500.02, -187500.02, 0.000, 0.000, 0.000, 11:51:49.931
82, 144033.20, -172754.55, 48150.08, 65359.98, 106264.41, 37073.56, -187500.02, -187500.02, 0.000, 0.000, 0.000, 11:51:49.932
83, 139202.55, -178455.52, 43448.55, 65941.42, 106850.86, 37653.70, -187500.02, -187500.02, 0.000, 0.000, 0.000, 11:51:49.932
84, 136126.39, -181823.14, 44012.17, 65879.84, 106796.97, 37595.72, -187500.02, -187500.02, 0.048, 0.976, -0.098, 11:51:49.932
85, 137969.06, -178563.45, 48982.82, 65295.61, 106203.84, 37017.97, -187500.02, -187500.02, 0.000, 0.000, 0.000, 11:51:49.933
86, 141335.27, -173230.86, 51581.84, 64993.82, 105883.59, 36702.41, -187500.02, -187500.02, 0.000, 0.000, 0.000, 11:51:49.933
87, 140424.53, -173498.58, 48303.30, 65424.96, 106312.80, 37109.08, -187500.02, -187500.02, 0.000, 0.000, 0.000, 11:51:49.933
88, 135583.47, -178797.91, 44137.43, 65972.45, 106858.95, 37654.11, -187500.02, -187500.02, 0.000, 0.000, 0.000, 11:51:49.933
89, 132242.53, -182019.09, 44709.70, 65932.68, 106809.95, 37632.04, -187500.02, -187500.02, 0.000, 0.000, 0.000, 11:51:50.381
90, 133618.09, -179093.03, 49152.16, 65396.75, 106273.11, 37102.11, -187500.02, -187500.02, 0.000, 0.000, 0.000, 11:51:50.382
91, 136666.78, -174112.50, 51429.30, 65098.83, 105965.21, 36789.38, -187500.02, -187500.02, 0.000, 0.000, 0.000, 11:51:50.382
92, 135856.31, -174266.73, 48372.06, 65493.18, 106352.97, 37170.23, -187500.02, -187500.02, 0.000, 0.000, 0.000, 11:51:50.382
93, 131364.64, -179182.84, 44482.68, 66007.78, 106871.94, 37685.58, -187500.02, -187500.02, 0.000, 0.000, 0.000, 11:51:50.382
94, 128205.13, -182269.63, 44908.32, 65980.73, 106850.81, 37673.06, -187500.02, -187500.02, 0.044, 0.974, -0.104, 11:51:50.383
95, 129451.11, -179651.80, 48960.60, 65482.14, 106356.37, 37185.07, -187500.02, -187500.02, 0.000, 0.000, 0.000, 11:51:50.383
96, 132437.17, -174927.81, 51129.79, 65166.26, 106031.58, 36858.88, -187500.02, -187500.02, 0.000, 0.000, 0.000, 11:51:50.383
97, 131774.23, -174974.66, 48393.63, 65516.83, 106378.79, 37194.73, -187500.02, -187500.02, 0.000, 0.000, 0.000, 11:51:50.384
98, 127569.94, -179541.86, 44904.16, 65996.01, 106870.62, 37668.05, -187500.02, -187500.02, 0.000, 0.000, 0.000, 11:51:50.384
99, 124511.02, -182491.64, 45317.63, 65975.89, 106855.51, 37663.58, -187500.02, -187500.02, 0.000, 0.000, 0.000, 11:51:50.384
100, 125401.89, -180202.16, 48944.89, 65532.54, 106406.46, 37227.97, -187500.02, -187500.02, 0.000, 0.000, 0.000, 11:51:50.385
101, 128060.65, -175747.94, 50955.38, 65216.22, 106087.74, 36901.61, -187500.02, -187500.02, 0.000, 0.000, 0.000, 11:51:50.385
102, 127407.13, -175645.83, 48479.55, 65544.90, 106409.86, 37214.20, -187500.02, -187500.02, 0.000, 0.000, 0.000, 11:51:50.386
103, 123291.95, -179933.66, 45243.17, 66020.21, 106891.02, 37682.52, -187500.02, -187500.02, 0.000, 0.000, 0.000, 11:51:50.386
104, 120251.06, -182793.31, 45601.02, 65997.70, 106868.98, 37665.46, -187500.02, -187500.02, 0.042, 0.976, -0.110, 11:51:50.386
105, 121071.26, -180748.06, 48913.39, 65580.20, 106445.48, 37258.93, -187500.02, -187500.02, 0.000, 0.000, 0.000, 11:51:50.387
106, 123706.30, -176565.00, 50779.94, 65277.24, 106132.31, 36957.16, -187500.02, -187500.02, 0.000, 0.000, 0.000, 11:51:50.387
107, 123250.15, -176369.16, 48544.81, 65575.30, 106422.28, 37230.81, -187500.02, -187500.02, 0.000, 0.000, 0.000, 11:51:50.387
108, 119433.57, -180354.08, 45558.17, 66023.27, 106872.80, 37663.00, -187500.02, -187500.02, 0.000, 0.000, 0.000, 11:51:50.387
109, 116508.89, -183116.86, 45837.48, 66018.91, 106871.63, 37673.28, -187500.02, -187500.02, 0.000, 0.000, 0.000, 11:51:50.387
110, 117278.48, -181209.31, 48912.66, 65608.96, 106460.73, 37272.43, -187500.02, -187500.02, 0.000, 0.000, 0.000, 11:51:50.388
111, 119922.34, -177164.41, 50645.18, 65299.79, 106156.16, 36954.41, -187500.02, -187500.02, 0.000, 0.000, 0.000, 11:51:50.388
112, 119650.13, -176923.19, 48509.86, 65587.62, 106434.16, 37222.76, -187500.02, -187500.02, 0.000, 0.000, 0.000, 11:51:50.388
113, 116099.27, -180695.23, 45635.24, 66029.15, 106870.70, 37659.27, -187500.02, -187500.02, 0.046, 0.974, -0.110, 11:51:50.388
114, 113234.09, -183409.73, 45815.98, 66040.77, 106889.03, 37691.66, -187500.02, -187500.02, 0.000, 0.000, 0.000, 11:51:50.389
115, 113821.31, -181691.64, 48692.22, 65647.61, 106490.08, 37309.04, -187500.02, -187500.02, 0.000, 0.000, 0.000, 11:51:50.389
116, 116232.69, -177840.84, 50357.05, 65344.96, 106175.12, 36988.40, -187500.02, -187500.02, 0.000, 0.000, 0.000, 11:51:50.389
117, 115929.29, -177542.52, 48424.34, 65617.30, 106447.05, 37240.73, -187500.02, -187500.02, 0.000, 0.000, 0.000, 11:51:50.389
118, 112501.22, -181100.02, 45828.43, 66025.17, 106857.74, 37646.68, -187500.02, -187500.02, 0.000, 0.000, 0.000, 11:51:50.390
119, 109708.05, -183725.83, 46013.32, 66051.88, 106898.55, 37688.97, -187500.02, -187500.02, 0.000, 0.000, 0.000, 11:51:50.390
120, 110254.58, -182162.63, 48656.17, 65677.60, 106520.59, 37326.14, -187500.02, -187500.02, 0.000, 0.000, 0.000, 11:51:50.390
121, 112724.65, -178462.52, 50217.82, 65373.87, 106211.59, 37012.34, -187500.02, -187500.02, 0.000, 0.000, 0.000, 11:51:50.390
122, 112655.00, -178062.58, 48445.95, 65626.38, 106454.41, 37247.46, -187500.02, -187500.02, 0.000, 0.000, 0.000, 11:51:50.391
123, 109423.70, -181442.20, 45984.09, 66048.44, 106875.60, 37672.57, -187500.02, -187500.02, 0.048, 0.966, -0.118, 11:51:50.391
124, 106667.21, -184017.84, 46142.27, 66063.62, 106892.70, 37700.33, -187500.02, -187500.02, 0.000, 0.000, 0.000, 11:51:50.391
125, 107063.20, -182581.38, 48635.92, 65697.07, 106527.65, 37342.39, -187500.02, -187500.02, 0.000, 0.000, 0.000, 11:51:50.392
126, 109314.71, -178986.89, 50169.63, 65405.54, 106229.08, 37037.15, -187500.02, -187500.02, 0.000, 0.000, 0.000, 11:51:50.392
127, 109115.78, -178552.48, 48538.98, 65645.93, 106464.80, 37257.29, -187500.02, -187500.02, 0.000, 0.000, 0.000, 11:51:50.392
128, 105938.64, -181777.33, 46245.22, 66051.17, 106864.80, 37654.20, -187500.02, -187500.02, 0.000, 0.000, 0.000, 11:51:50.393
129, 103227.35, -184314.25, 46342.92, 66088.70, 106900.19, 37699.84, -187500.02, -187500.02, 0.000, 0.000, 0.000, 11:51:50.393
130, 103556.99, -183017.66, 48613.72, 65738.09, 106549.64, 37363.15, -187500.02, -187500.02, 0.000, 0.000, 0.000, 11:51:50.393
131, 105753.12, -179559.36, 50029.21, 65433.84, 106246.58, 37053.11, -187500.02, -187500.02, 0.000, 0.000, 0.000, 11:51:50.394
132, 105689.46, -179059.45, 48507.82, 65666.38, 106477.60, 37262.91, -187500.02, -187500.02, 0.000, 0.000, 0.000, 11:51:50.394
133, 102687.33, -182152.58, 46336.13, 66073.56, 106876.65, 37668.34, -187500.02, -187500.02, 0.056, 0.964, -0.118, 11:51:50.394
134, 100014.09, -184664.66, 46399.18, 66110.96, 106923.30, 37720.63, -187500.02, -187500.02, 0.000, 0.000, 0.000, 11:51:50.394
135, 100246.63, -183496.30, 48545.11, 65772.60, 106582.50, 37386.67, -187500.02, -187500.02, 0.000, 0.000, 0.000, 11:51:50.395
136, 102361.29, -180151.36, 49914.91, 65472.75, 106271.21, 37081.16, -187500.02, -187500.02, 0.000, 0.000, 0.000, 11:51:50.395
137, 102303.57, -179599.19, 48452.68, 65690.84, 106483.62, 37287.74, -187500.02, -187500.02, 0.000, 0.000, 0.000, 11:51:50.395
138, 99302.34, -182577.72, 46350.36, 66083.80, 106884.54, 37673.17, -187500.02, -187500.02, 0.000, 0.000, 0.000, 11:51:50.395
139, 96615.23, -185015.03, 46525.33, 66114.09, 106921.82, 37710.97, -187500.02, -187500.02, 0.000, 0.000, 0.000, 11:51:50.395
140, 96765.77, -183892.53, 48669.34, 65785.97, 106598.84, 37389.71, -187500.02, -187500.02, 0.000, 0.000, 0.000, 11:51:50.396
141, 98731.01, -180672.55, 49988.18, 65500.46, 106309.99, 37099.60, -187500.02, -187500.02, 0.000, 0.000, 0.000, 11:51:50.396
142, 98669.60, -180097.86, 48655.23, 65704.42, 106505.50, 37288.90, -187500.02, -187500.02, 0.000, 0.000, 0.000, 11:51:50.396
143, 95828.43, -182950.67, 46715.19, 66087.49, 106884.67, 37669.57, -187500.02, -187500.02, 0.060, 0.962, -0.120, 11:51:50.396
144, 93359.39, -185337.81, 46755.76, 66124.21, 106924.17, 37707.23, -187500.02, -187500.02, 0.000, 0.000, 0.000, 11:51:50.397
145, 93634.90, -184326.81, 48604.61, 65815.96, 106610.48, 37409.62, -187500.02, -187500.02, 0.000, 0.000, 0.000, 11:51:50.397
146, 95779.21, -181166.09, 49814.53, 65532.18, 106322.30, 37120.70, -187500.02, -187500.02, 0.000, 0.000, 0.000, 11:51:50.398
147, 95948.93, -180552.56, 48577.25, 65727.00, 106505.70, 37302.22, -187500.02, -187500.02, 0.000, 0.000, 0.000, 11:51:50.399
148, 93324.90, -183306.61, 46756.11, 66096.19, 106882.44, 37664.10, -187500.02, -187500.02, 0.000, 0.000, 0.000, 11:51:50.399
149, 90896.07, -185657.52, 46751.53, 66147.64, 106936.73, 37720.51, -187500.02, -187500.02, 0.000, 0.000, 0.000, 11:51:50.399
150, 91061.36, -184719.70, 48473.49, 65843.79, 106630.83, 37422.92, -187500.02, -187500.02, 0.000, 0.000, 0.000, 11:51:50.399
151, 93067.56, -181651.59, 49636.43, 65553.20, 106334.93, 37119.96, -187500.02, -187500.02, 0.000, 0.000, 0.000, 11:51:50.400
152, 93164.91, -181028.73, 48472.06, 65748.98, 106523.23, 37302.80, -187500.02, -187500.02, 0.000, 0.000, 0.000, 11:51:50.400
153, 90551.65, -183657.19, 46780.61, 66107.09, 106884.56, 37657.75, -187500.02, -187500.02, 0.058, 0.968, -0.124, 11:51:50.400
154, 88088.98, -185981.55, 46842.23, 66162.23, 106936.82, 37716.13, -187500.02, -187500.02, 0.000, 0.000, 0.000, 11:51:50.401
155, 88218.02, -185110.75, 48547.72, 65855.55, 106633.30, 37413.20, -187500.02, -187500.02, 0.000, 0.000, 0.000, 11:51:50.401
156, 90186.36, -182129.19, 49661.82, 65588.29, 106366.31, 37135.16, -187500.02, -187500.02, 0.000, 0.000, 0.000, 11:51:50.401
157, 90350.80, -181457.05, 48570.54, 65763.19, 106535.01, 37301.66, -187500.02, -187500.02, 0.000, 0.000, 0.000, 11:51:50.402
158, 87814.05, -184002.84, 46892.35, 66117.35, 106887.02, 37655.63, -187500.02, -187500.02, 0.000, 0.000, 0.000, 11:51:50.402
159, 85344.45, -186327.22, 46899.75, 66179.96, 106958.08, 37722.28, -187500.02, -187500.02, 0.000, 0.000, 0.000, 11:51:50.403
160, 85394.10, -185543.92, 48529.55, 65898.06, 106668.98, 37441.11, -187500.02, -187500.02, 0.000, 0.000, 0.000, 11:51:50.404
161, 87277.77, -182638.48, 49686.72, 65632.45, 106389.12, 37166.39, -187500.02, -187500.02, 0.000, 0.000, 0.000, 11:51:50.404
162, 87429.45, -181923.13, 48759.77, 65793.12, 106544.37, 37318.45, -187500.02, -187500.02, 0.058, 0.966, -0.130, 11:51:50.405
163, 84877.28, -184401.70, 47267.10, 66143.30, 106893.03, 37660.30, -187500.02, -187500.02, 0.000, 0.000, 0.000, 11:51:50.405
164, 82340.05, -186725.38, 47296.25, 66219.77, 106969.59, 37739.38, -187500.02, -187500.02, 0.000, 0.000, 0.000, 11:51:50.405
165, 82312.42, -185989.69, 48858.18, 65939.72, 106688.18, 37460.43, -187500.02, -187500.02, 0.000, 0.000, 0.000, 11:51:50.406
166, 84147.59, -183127.95, 49974.61, 65685.49, 106423.89, 37198.22, -187500.02, -187500.02, 0.000, 0.000, 0.000, 11:51:50.406
167, 84319.30, -182386.31, 49043.73, 65841.29, 106571.46, 37342.23, -187500.02, -187500.02, 0.000, 0.000, 0.000, 11:51:50.406
168, 81813.04, -184819.34, 47542.85, 66176.05, 106903.54, 37667.89, -187500.02, -187500.02, 0.000, 0.000, 0.000, 11:51:50.407
169, 79322.16, -187124.27, 47550.70, 66241.13, 106970.77, 37733.07, -187500.02, -187500.02, 0.000, 0.000, 0.000, 11:51:50.407
170, 79314.13, -186418.95, 49016.66, 65971.44, 106698.41, 37472.90, -187500.02, -187500.02, 0.000, 0.000, 0.000, 11:51:50.407
171, 81185.80, -183575.70, 49998.75, 65720.67, 106437.51, 37205.46, -187500.02, -187500.02, 0.000, 0.000, 0.000, 11:51:50.408
172, 81432.97, -182801.13, 48995.20, 65877.41, 106582.75, 37347.17, -187500.02, -187500.02, 0.054, 0.970, -0.134, 11:51:50.408
173, 79011.38, -185181.42, 47466.10, 66198.24, 106907.90, 37667.58, -187500.02, -187500.02, 0.000, 0.000, 0.000, 11:51:50.408
174, 76518.20, -187500.02, 47463.39, 66275.00, 106994.20, 37742.77, -187500.02, -187500.02, 0.000, 0.000, 0.000, 11:51:50.409
175, 76545.80, -186874.75, 49029.02, 66013.22, 106723.50, 37484.19, -187500.02, -187500.02, 0.000, 0.000, 0.000, 11:51:50.409
176, 78543.73, -183994.39, 50131.36, 65754.88, 106446.63, 37221.78, -187500.02, -187500.02, 0.000, 0.000, 0.000, 11:51:50.409
177, 78948.30, -183183.77, 49209.33, 65905.37, 106585.14, 37354.75, -187500.02, -187500.02, 0.000, 0.000, 0.000, 11:51:50.410
178, 76682.44, -185563.53, 47694.20, 66231.81, 106911.14, 37678.67, -187500.02, -187500.02, 0.000, 0.000, 0.000, 11:51:50.410
179, 74352.09, -187500.02, 47596.21, 66311.12, 106992.63, 37764.37, -187500.02, -187500.02, 0.000, 0.000, 0.000, 11:51:50.410
180, 74466.16, -187287.30, 48993.68, 66040.20, 106728.52, 37492.17, -187500.02, -187500.02, 0.000, 0.000, 0.000, 11:51:50.411
181, 76523.52, -184398.52, 50038.94, 65778.63, 106456.64, 37219.79, -187500.02, -187500.02, 0.000, 0.000, 0.000, 11:51:50.411
182, 76995.30, -183508.39, 49140.53, 65907.94, 106574.59, 37332.06, -187500.02, -187500.02, 0.058, 0.966, -0.134, 11:51:50.411
183, 74689.05, -185873.80, 47592.67, 66236.04, 106898.35, 37651.20, -187500.02, -187500.02, 0.000, 0.000, 0.000, 11:51:50.412
184, 72202.75, -187500.02, 47438.18, 66338.61, 107003.48, 37749.10, -187500.02, -187500.02, 0.000, 0.000, 0.000, 11:51:50.412
185, 72233.17, -187500.02, 48848.30, 66076.96, 106733.91, 37488.99, -187500.02, -187500.02, 0.000, 0.000, 0.000, 11:51:50.413
186, 74244.96, -184775.38, 49926.26, 65835.09, 106472.48, 37241.94, -187500.02, -187500.02, 0.000, 0.000, 0.000, 11:51:50.413
187, 74637.26, -183869.58, 49041.49, 65966.19, 106600.85, 37360.52, -187500.02, -187500.02, 0.000, 0.000, 0.000, 11:51:50.413
188, 72237.10, -186221.45, 47529.06, 66286.24, 106918.96, 37679.61, -187500.02, -187500.02, 0.000, 0.000, 0.000, 11:51:50.414
189, 69662.74, -187500.02, 47420.66, 66384.55, 107006.23, 37775.32, -187500.02, -187500.02, 0.000, 0.000, 0.000, 11:51:50.414
190, 69539.52, -187500.02, 48823.72, 66140.89, 106754.90, 37532.78, -187500.02, -187500.02, 0.000, 0.000, 0.000, 11:51:50.415
191, 71493.98, -185183.95, 49921.88, 65876.09, 106492.29, 37255.51, -187500.02, -187500.02, 0.000, 0.000, 0.000, 11:51:50.416
192, 71895.21, -184229.78, 49055.66, 66000.72, 106606.35, 37366.73, -187500.02, -187500.02, 0.060, 0.964, -0.130, 11:51:50.416
193, 69500.94, -186547.25, 47505.41, 66313.17, 106917.42, 37670.20, -187500.02, -187500.02, 0.000, 0.000, 0.000, 11:51:50.416
194, 66883.55, -187500.02, 47299.26, 66421.07, 107026.79, 37779.61, -187500.02, -187500.02, 0.000, 0.000, 0.000, 11:51:50.417
195, 66748.92, -187500.02, 48659.93, 66172.36, 106768.60, 37533.85, -187500.02, -187500.02, 0.000, 0.000, 0.000, 11:51:50.417
196, 68688.23, -185576.27, 49770.79, 65913.13, 106499.78, 37267.46, -187500.02, -187500.02, 0.000, 0.000, 0.000, 11:51:50.417
197, 69098.94, -184606.27, 48967.62, 66038.25, 106623.80, 37379.29, -187500.02, -187500.02, 0.000, 0.000, 0.000, 11:51:50.418
198, 66701.98, -186921.67, 47461.18, 66360.90, 106945.16, 37697.29, -187500.02, -187500.02, 0.000, 0.000, 0.000, 11:51:50.418
199, 64076.13, -187500.02, 47300.34, 66459.83, 107053.77, 37799.23, -187500.02, -187500.02, 0.000, 0.000, 0.000, 11:51:50.418
200, 63876.79, -187500.02, 48652.41, 66224.95, 106811.96, 37567.47, -187500.02, -187500.02, 0.000, 0.000, 0.000, 11:51:50.418
201, 65768.30, -186057.39, 49740.79, 65965.45, 106541.89, 37303.70, -187500.02, -187500.02, 0.000, 0.000, 0.000, 11:51:50.419
202, 66241.20, -185025.56, 48938.94, 66069.20, 106643.39, 37392.97, -187500.02, -187500.02, 0.060, 0.958, -0.124, 11:51:50.419
203, 63867.98, -187326.75, 47400.74, 66395.50, 106970.66, 37712.78, -187500.02, -187500.02, 0.000, 0.000, 0.000, 11:51:50.419
204, 61251.78, -187500.02, 47217.30, 66486.67, 107065.55, 37806.41, -187500.02, -187500.02, 0.000, 0.000, 0.000, 11:51:50.419
205, 61082.22, -187500.02, 48557.46, 66242.14, 106816.99, 37566.44, -187500.02, -187500.02, 0.000, 0.000, 0.000, 11:51:50.420
206, 63020.43, -186452.44, 49644.12, 65978.62, 106543.21, 37297.59, -187500.02, -187500.02, 0.000, 0.000, 0.000, 11:51:50.420
207, 63544.44, -185387.98, 48848.08, 66089.50, 106653.55, 37393.64, -187500.02, -187500.02, 0.000, 0.000, 0.000, 11:51:50.420
208, 61241.34, -187500.02, 47342.04, 66401.06, 106966.08, 37703.30, -187500.02, -187500.02, 0.000, 0.000, 0.000, 11:51:50.421
209, 58636.40, -187500.02, 47158.00, 66509.70, 107066.93, 37819.82, -187500.02, -187500.02, 0.000, 0.000, 0.000, 11:51:50.863
210, 58456.31, -187500.02, 48493.65, 66276.02, 106821.24, 37592.86, -187500.02, -187500.02, 0.000, 0.000, 0.000, 11:51:50.863
211, 60405.97, -186822.95, 49583.95, 66022.60, 106551.99, 37336.98, -187500.02, -187500.02, 0.000, 0.000, 0.000, 11:51:50.863
212, 60970.21, -185735.30, 48824.03, 66123.79, 106648.69, 37425.04, -187500.02, -187500.02, 0.060, 0.960, -0.126, 11:51:50.864
213, 58681.11, -187500.02, 47340.97, 66434.75, 106970.57, 37722.99, -187500.02, -187500.02, 0.000, 0.000, 0.000, 11:51:50.864
214, 56042.50, -187500.02, 47144.59, 66549.16, 107084.41, 37834.89, -187500.02, -187500.02, 0.000, 0.000, 0.000, 11:51:50.865
215, 55837.85, -187500.02, 48473.87, 66313.94, 106839.08, 37610.09, -187500.02, -187500.02, 0.000, 0.000, 0.000, 11:51:50.865
216, 57827.38, -187237.00, 49575.30, 66036.91, 106558.65, 37328.77, -187500.02, -187500.02, 0.000, 0.000, 0.000, 11:51:50.865
217, 58452.16, -186095.75, 48818.31, 66135.81, 106655.57, 37410.63, -187500.02, -187500.02, 0.000, 0.000, 0.000, 11:51:50.865
218, 56209.27, -187500.02, 47328.88, 66445.79, 106959.66, 37717.74, -187500.02, -187500.02, 0.000, 0.000, 0.000, 11:51:50.866
219, 53592.91, -187500.02, 47120.61, 66560.79, 107079.54, 37836.81, -187500.02, -187500.02, 0.000, 0.000, 0.000, 11:51:50.866
220, 53326.03, -187500.02, 48435.91, 66344.76, 106860.09, 37622.41, -187500.02, -187500.02, 0.000, 0.000, 0.000, 11:51:50.866
221, 55308.07, -187500.02, 49563.41, 66071.06, 106568.94, 37346.77, -187500.02, -187500.02, 0.064, 0.964, -0.124, 11:51:50.867
222, 56001.15, -186447.20, 48828.01, 66149.23, 106639.55, 37410.43, -187500.02, -187500.02, 0.000, 0.000, 0.000, 11:51:50.867
223, 53796.98, -187500.02, 47338.76, 66473.28, 106961.68, 37730.55, -187500.02, -187500.02, 0.000, 0.000, 0.000, 11:51:50.867
224, 51177.47, -187500.02, 47124.96, 66592.75, 107078.87, 37855.45, -187500.02, -187500.02, 0.000, 0.000, 0.000, 11:51:50.868
225, 50976.37, -187500.02, 48404.22, 66363.49, 106836.77, 37633.09, -187500.02, -187500.02, 0.000, 0.000, 0.000, 11:51:50.868
226, 53015.16, -187500.02, 49475.52, 66091.49, 106552.35, 37357.12, -187500.02, -187500.02, 0.000, 0.000, 0.000, 11:51:50.868
227, 53788.62, -186774.55, 48753.11, 66177.55, 106634.65, 37433.47, -187500.02, -187500.02, 0.000, 0.000, 0.000, 11:51:50.869
228, 51690.00, -187500.02, 47286.05, 66486.18, 106940.64, 37732.89, -187500.02, -187500.02, 0.000, 0.000, 0.000, 11:51:50.869
229, 49113.96, -187500.02, 47039.09, 66613.25, 107069.13, 37858.58, -187500.02, -187500.02, 0.000, 0.000, 0.000, 11:51:50.869
230, 48945.36, -187500.02, 48286.09, 66387.70, 106838.90, 37635.82, -187500.02, -187500.02, 0.000, 0.000, 0.000, 11:51:50.870
231, 51036.77, -187500.02, 49350.84, 66114.24, 106557.04, 37358.19, -187500.02, -187500.02, 0.060, 0.962, -0.118, 11:51:50.870
232, 51911.12, -187097.84, 48632.12, 66193.15, 106630.38, 37425.13, -187500.02, -187500.02, 0.000, 0.000, 0.000, 11:51:50.870
233, 49863.45, -187500.02, 47162.36, 66511.55, 106946.52, 37735.33, -187500.02, -187500.02, 0.000, 0.000, 0.000, 11:51:50.870
234, 47339.00, -187500.02, 46939.11, 66625.48, 107067.11, 37857.62, -187500.02, -187500.02, 0.000, 0.000, 0.000, 11:51:50.870
235, 47177.02, -187500.02, 48206.74, 66401.46, 106845.11, 37643.15, -187500.02, -187500.02, 0.000, 0.000, 0.000, 11:51:50.871
236, 49287.92, -187500.02, 49288.05, 66128.23, 106556.22, 37367.60, -187500.02, -187500.02, 0.000, 0.000, 0.000, 11:51:50.871
237, 50164.73, -187374.08, 48582.45, 66226.63, 106646.65, 37454.13, -187500.02, -187500.02, 0.000, 0.000, 0.000, 11:51:50.871
238, 48119.97, -187500.02, 47153.30, 66545.97, 106965.63, 37769.26, -187500.02, -187500.02, 0.000, 0.000, 0.000, 11:51:50.872
239, 45574.36, -187500.02, 46914.05, 66661.41, 107089.26, 37886.83, -187500.02, -187500.02, 0.000, 0.000, 0.000, 11:51:50.872
240, 45347.38, -187500.02, 48131.48, 66440.60, 106878.84, 37671.32, -187500.02, -187500.02, 0.000, 0.000, 0.000, 11:51:50.872
241, 47418.53, -187500.02, 49185.88, 66161.34, 106592.91, 37385.48, -187500.02, -187500.02, 0.054, 0.966, -0.114, 11:51:50.872
242, 48283.54, -187500.02, 48473.89, 66231.62, 106664.40, 37446.23, -187500.02, -187500.02, 0.000, 0.000, 0.000, 11:51:50.873
243, 46256.24, -187500.02, 47036.65, 66534.70, 106971.78, 37744.03, -187500.02, -187500.02, 0.000, 0.000, 0.000, 11:51:50.873
244, 43722.07, -187500.02, 46798.29, 66667.67, 107101.38, 37873.78, -187500.02, -187500.02, 0.000, 0.000, 0.000, 11:51:50.873
245, 43479.33, -187500.02, 47997.64, 66461.63, 106892.52, 37673.37, -187500.02, -187500.02, 0.000, 0.000, 0.000, 11:51:50.874
246, 45567.67, -187500.02, 49063.66, 66183.06, 106603.36, 37391.14, -187500.02, -187500.02, 0.000, 0.000, 0.000, 11:51:50.874
247, 46560.20, -187500.02, 48395.23, 66247.91, 106659.97, 37443.84, -187500.02, -187500.02, 0.000, 0.000, 0.000, 11:51:50.874
248, 44972.56, -187500.02, 47096.82, 66522.27, 106943.98, 37709.98, -187500.02, -187500.02, 0.000, 0.000, 0.000, 11:51:50.874
249, 43443.43, -187500.02, 47046.40, 66582.00, 107004.91, 37773.08, -187500.02, -187500.02, 0.000, 0.000, 0.000, 11:51:50.874
250, 42948.00, -187500.02, 47857.74, 66479.65, 106897.66, 37669.93, -187500.02, -187500.02, 0.000, 0.000, 0.000, 11:51:50.875
251, 43562.86, -187500.02, 48500.24, 66337.27, 106748.93, 37520.75, -187500.02, -187500.02, 0.054, 0.968, -0.116, 11:51:50.875
252, 43928.82, -187500.02, 48061.01, 66370.69, 106773.56, 37557.77, -187500.02, -187500.02, 0.000, 0.000, 0.000, 11:51:50.875
253, 43071.50, -187500.02, 47201.54, 66529.97, 106934.27, 37711.77, -187500.02, -187500.02, 0.000, 0.000, 0.000, 11:51:50.875
254, 41798.52, -187500.02, 47064.01, 66593.60, 107002.18, 37767.43, -187500.02, -187500.02, 0.000, 0.000, 0.000, 11:51:50.876
255, 41157.65, -187500.02, 47742.74, 66497.17, 106905.71, 37670.91, -187500.02, -187500.02, 0.000, 0.000, 0.000, 11:51:50.876
0, 41752.41, -187500.02, 48383.01, 66348.45, 106754.61, 37517.83, -187500.02, -187500.02, 0.000, 0.000, 0.000, 11:51:50.876
1, 42247.90, -187500.02, 47980.50, 66390.29, 106783.65, 37558.06, -187500.02, -187500.02, 0.000, 0.000, 0.000, 11:51:50.876
2, 41563.40, -187500.02, 47133.48, 66545.86, 106934.45, 37713.67, -187500.02, -187500.02, 0.000, 0.000, 0.000, 11:51:50.876
3, 40387.79, -187500.02, 46980.71, 66602.95, 106997.26, 37770.25, -187500.02, -187500.02, 0.000, 0.000, 0.000, 11:51:50.877
4, 39829.98, -187500.02, 47647.17, 66510.85, 106912.59, 37678.47, -187500.02, -187500.02, 0.000, 0.000, 0.000, 11:51:50.877
5, 40510.97, -187500.02, 48289.36, 66378.94, 106776.96, 37544.22, -187500.02, -187500.02, 0.052, 0.968, -0.112, 11:51:50.877
6, 41210.94, -187500.02, 47928.89, 66392.97, 106791.78, 37551.78, -187500.02, -187500.02, 0.000, 0.000, 0.000, 11:51:50.877
7, 40667.01, -187500.02, 47083.99, 66542.21, 106932.33, 37698.34, -187500.02, -187500.02, 0.000, 0.000, 0.000, 11:51:50.878
8, 39533.39, -187500.02, 46936.72, 66612.63, 107004.70, 37768.66, -187500.02, -187500.02, 0.000, 0.000, 0.000, 11:51:50.878
9, 39001.04, -187500.02, 47604.27, 66509.80, 106913.77, 37669.53, -187500.02, -187500.02, 0.000, 0.000, 0.000, 11:51:50.878
10, 39649.13, -187500.02, 48238.30, 66374.35, 106783.63, 37531.62, -187500.02, -187500.02, 0.000, 0.000, 0.000, 11:51:50.878
11, 40242.50, -187500.02, 47893.15, 66409.18, 106809.04, 37567.43, -187500.02, -187500.02, 0.000, 0.000, 0.000, 11:51:50.878
12, 39635.39, -187500.02, 47086.70, 66537.99, 106942.03, 37697.85, -187500.02, -187500.02, 0.000, 0.000, 0.000, 11:51:50.879
13, 38448.44, -187500.02, 46925.14, 66598.92, 107001.73, 37760.63, -187500.02, -187500.02, 0.000, 0.000, 0.000, 11:51:50.879
14, 37761.35, -187500.02, 47565.61, 66530.70, 106930.83, 37688.37, -187500.02, -187500.02, 0.060, 0.962, -0.114, 11:51:50.879
15, 38297.61, -187500.02, 48212.02, 66393.09, 106793.05, 37547.49, -187500.02, -187500.02, 0.000, 0.000, 0.000, 11:51:50.880
16, 38835.60, -187500.02, 47858.01, 66416.44, 106806.84, 37565.64, -187500.02, -187500.02, 0.000, 0.000, 0.000, 11:51:50.880
17, 38167.10, -187500.02, 47020.52, 66575.12, 106961.90, 37723.89, -187500.02, -187500.02, 0.000, 0.000, 0.000, 11:51:50.881
18, 36934.91, -187500.02, 46849.32, 66640.09, 107032.66, 37790.90, -187500.02, -187500.02, 0.000, 0.000, 0.000, 11:51:50.881
19, 36260.09, -187500.02, 47485.30, 66557.39, 106952.38, 37709.45, -187500.02, -187500.02, 0.000, 0.000, 0.000, 11:51:50.882
20, 36825.48, -187500.02, 48126.28, 66419.70, 106813.89, 37559.58, -187500.02, -187500.02, 0.000, 0.000, 0.000, 11:51:50.882
21, 37419.88, -187500.02, 47785.84, 66444.65, 106827.66, 37577.44, -187500.02, -187500.02, 0.000, 0.000, 0.000, 11:51:50.883
22, 36867.70, -187500.02, 46959.85, 66584.13, 106961.66, 37717.09, -187500.02, -187500.02, 0.000, 0.000, 0.000, 11:51:50.883
23, 35738.07, -187500.02, 46754.73, 66651.02, 107025.65, 37785.02, -187500.02, -187500.02, 0.000, 0.000, 0.000, 11:51:50.883
24, 35159.88, -187500.02, 47377.45, 66569.48, 106950.95, 37703.93, -187500.02, -187500.02, 0.054, 0.968, -0.120, 11:51:50.883
25, 35774.70, -187500.02, 48013.24, 66427.05, 106816.50, 37560.59, -187500.02, -187500.02, 0.000, 0.000, 0.000, 11:51:50.884
26, 36383.92, -187500.02, 47673.30, 66446.77, 106835.55, 37576.14, -187500.02, -187500.02, 0.000, 0.000, 0.000, 11:51:50.885
27, 35819.86, -187500.02, 46857.68, 66586.09, 106965.79, 37714.86, -187500.02, -187500.02, 0.000, 0.000, 0.000, 11:51:50.885
28, 34652.38, -187500.02, 46669.46, 66646.06, 107027.16, 37777.31, -187500.02, -187500.02, 0.000, 0.000, 0.000, 11:51:50.885
29, 33945.35, -187500.02, 47279.13, 66578.47, 106965.88, 37710.32, -187500.02, -187500.02, 0.000, 0.000, 0.000, 11:51:50.886
30, 34447.55, -187500.02, 47926.14, 66441.48, 106831.50, 37570.55, -187500.02, -187500.02, 0.000, 0.000, 0.000, 11:51:50.886
31, 34992.59, -187500.02, 47613.95, 66461.13, 106844.76, 37592.70, -187500.02, -187500.02, 0.000, 0.000, 0.000, 11:51:50.887
32, 34375.51, -187500.02, 46817.16, 66597.47, 106983.80, 37731.04, -187500.02, -187500.02, 0.000, 0.000, 0.000, 11:51:50.887
33, 33149.78, -187500.02, 46634.03, 66665.59, 107055.48, 37800.17, -187500.02, -187500.02, 0.000, 0.000, 0.000, 11:51:50.887
34, 32418.99, -187500.02, 47244.77, 66586.38, 106977.61, 37720.24, -187500.02, -187500.02, 0.056, 0.968, -0.118, 11:51:50.887
35, 32897.72, -187500.02, 47884.45, 66455.29, 106842.14, 37587.00, -187500.02, -187500.02, 0.000, 0.000, 0.000, 11:51:50.888
36, 33448.29, -187500.02, 47568.27, 66481.26, 106862.23, 37609.58, -187500.02, -187500.02, 0.000, 0.000, 0.000, 11:51:50.888
37, 32762.13, -187500.02, 46750.19, 66651.34, 107030.66, 37785.94, -187500.02, -187500.02, 0.000, 0.000, 0.000, 11:51:50.888
38, 31523.94, -187500.02, 46580.45, 66697.89, 107076.70, 37836.23, -187500.02, -187500.02, 0.000, 0.000, 0.000, 11:51:50.888
39, 30805.64, -187500.02, 47181.31, 66597.55, 106985.23, 37739.20, -187500.02, -187500.02, 0.000, 0.000, 0.000, 11:51:50.889
40, 31304.13, -187500.02, 47790.44, 66451.96, 106836.48, 37590.36, -187500.02, -187500.02, 0.000, 0.000, 0.000, 11:51:50.889
41, 31880.63, -187500.02, 47458.86, 66459.91, 106838.98, 37600.62, -187500.02, -187500.02, 0.000, 0.000, 0.000, 11:51:50.889
42, 31283.14, -187500.02, 46637.32, 66614.74, 107002.34, 37755.02, -187500.02, -187500.02, 0.000, 0.000, 0.000, 11:51:50.889
43, 30061.17, -187500.02, 46446.99, 66692.46, 107081.91, 37835.64, -187500.02, -187500.02, 0.000, 0.000, 0.000, 11:51:50.890
44, 29344.13, -187500.02, 47033.66, 66610.30, 107002.42, 37752.07, -187500.02, -187500.02, 0.052, 0.972, -0.114, 11:51:50.890
45, 29859.22, -187500.02, 47659.26, 66470.33, 106864.60, 37608.75, -187500.02, -187500.02, 0.000, 0.000, 0.000, 11:51:50.890
46, 30492.67, -187500.02, 47351.12, 66477.08, 106873.72, 37609.22, -187500.02, -187500.02, 0.000, 0.000, 0.000, 11:51:50.891
47, 29944.88, -187500.02, 46546.10, 66625.41, 107017.13, 37753.26, -187500.02, -187500.02, 0.000, 0.000, 0.000, 11:51:50.891
48, 28756.90, -187500.02, 46355.37, 66710.43, 107102.83, 37837.10, -187500.02, -187500.02, 0.000, 0.000, 0.000, 11:51:50.891
49, 28076.34, -187500.02, 46943.54, 66611.80, 107006.70, 37742.91, -187500.02, -187500.02, 0.000, 0.000, 0.000, 11:51:50.891
50, 28606.95, -187500.02, 47547.12, 66465.05, 106859.95, 37591.01, -187500.02, -187500.02, 0.000, 0.000, 0.000, 11:51:50.891
51, 29246.12, -187500.02, 47244.07, 66479.31, 106869.34, 37597.06, -187500.02, -187500.02, 0.000, 0.000, 0.000, 11:51:50.892
52, 28720.78, -187500.02, 46447.66, 66629.54, 107017.53, 37748.72, -187500.02, -187500.02, 0.000, 0.000, 0.000, 11:51:50.892
53, 27561.67, -187500.02, 46261.70, 66702.01, 107095.83, 37827.00, -187500.02, -187500.02, 0.000, 0.000, 0.000, 11:51:50.892
54, 26899.61, -187500.02, 46832.69, 66616.40, 107015.66, 37743.63, -187500.02, -187500.02, 0.050, 0.966, -0.116, 11:51:50.892
55, 27445.57, -187500.02, 47401.81, 66475.00, 106865.95, 37601.06, -187500.02, -187500.02, 0.000, 0.000, 0.000, 11:51:50.893
56, 28111.97, -187500.02, 47081.11, 66483.97, 106870.84, 37605.87, -187500.02, -187500.02, 0.000, 0.000, 0.000, 11:51:50.893
57, 27579.77, -187500.02, 46290.44, 66649.23, 107036.58, 37767.59, -187500.02, -187500.02, 0.000, 0.000, 0.000, 11:51:50.893
58, 26390.28, -187500.02, 46093.16, 66722.93, 107115.99, 37842.87, -187500.02, -187500.02, 0.000, 0.000, 0.000, 11:51:50.894
59, 25649.81, -187500.02, 46658.66, 66645.70, 107046.16, 37764.95, -187500.02, -187500.02, 0.000, 0.000, 0.000, 11:51:50.894
60, 26131.16, -187500.02, 47264.91, 66503.59, 106904.03, 37622.50, -187500.02, -187500.02, 0.000, 0.000, 0.000, 11:51:50.894
61, 26780.00, -187500.02, 46972.10, 66502.63, 106890.80, 37621.43, -187500.02, -187500.02, 0.000, 0.000, 0.000, 11:51:50.894
62, 26290.52, -187500.02, 46191.24, 66638.28, 107029.40, 37750.33, -187500.02, -187500.02, 0.000, 0.000, 0.000, 11:51:50.895
63, 25134.94, -187500.02, 45985.45, 66725.84, 107118.81, 37836.99, -187500.02, -187500.02, 0.000, 0.000, 0.000, 11:51:50.895
64, 24431.17, -187500.02, 46538.66, 66656.72, 107044.00, 37776.26, -187500.02, -187500.02, 0.058, 0.962, -0.124, 11:51:50.895
65, 24977.76, -187500.02, 47142.49, 66516.40, 106907.48, 37637.07, -187500.02, -187500.02, 0.000, 0.000, 0.000, 11:51:50.895
66, 25694.29, -187500.02, 46865.53, 66513.88, 106909.46, 37629.38, -187500.02, -187500.02, 0.000, 0.000, 0.000, 11:51:50.895
67, 25232.91, -187500.02, 46082.75, 66662.60, 107061.12, 37781.29, -187500.02, -187500.02, 0.000, 0.000, 0.000, 11:51:50.896
68, 24113.87, -187500.02, 45885.20, 66742.15, 107138.70, 37863.38, -187500.02, -187500.02, 0.000, 0.000, 0.000, 11:51:50.896
69, 23442.46, -187500.02, 46432.84, 66663.94, 107062.80, 37785.71, -187500.02, -187500.02, 0.000, 0.000, 0.000, 11:51:50.896
70, 24006.09, -187500.02, 47028.98, 66514.56, 106908.68, 37640.70, -187500.02, -187500.02, 0.000, 0.000, 0.000, 11:51:50.896
71, 24764.44, -187500.02, 46744.94, 66515.05, 106899.98, 37635.82, -187500.02, -187500.02, 0.000, 0.000, 0.000, 11:51:50.897
72, 24326.14, -187500.02, 45970.45, 66678.56, 107060.23, 37792.84, -187500.02, -187500.02, 0.000, 0.000, 0.000, 11:51:50.897
73, 23203.77, -187500.02, 45770.98, 66763.45, 107149.99, 37875.79, -187500.02, -187500.02, 0.056, 0.970, -0.128, 11:51:51.343
74, 22517.50, -187500.02, 46305.46, 66696.35, 107090.91, 37812.85, -187500.02, -187500.02, 0.000, 0.000, 0.000, 11:51:51.343
75, 23053.68, -187500.02, 46895.81, 66557.66, 106949.00, 37672.43, -187500.02, -187500.02, 0.000, 0.000, 0.000, 11:51:51.344
76, 23780.27, -187500.02, 46627.46, 66550.87, 106927.99, 37658.33, -187500.02, -187500.02, 0.000, 0.000, 0.000, 11:51:51.344
77, 23359.76, -187500.02, 45871.88, 66688.77, 107064.38, 37793.91, -187500.02, -187500.02, 0.000, 0.000, 0.000, 11:51:51.344
78, 22218.55, -187500.02, 45659.20, 66772.41, 107149.09, 37876.53, -187500.02, -187500.02, 0.000, 0.000, 0.000, 11:51:51.345
79, 21483.76, -187500.02, 46182.50, 66689.35, 107072.48, 37792.80, -187500.02, -187500.02, 0.000, 0.000, 0.000, 11:51:51.345
80, 21965.60, -187500.02, 46763.16, 66540.91, 106922.98, 37641.72, -187500.02, -187500.02, 0.000, 0.000, 0.000, 11:51:51.345
81, 22669.27, -187500.02, 46496.37, 66538.55, 106911.36, 37640.20, -187500.02, -187500.02, 0.000, 0.000, 0.000, 11:51:51.346
82, 22237.55, -187500.02, 45737.68, 66683.56, 107049.38, 37785.58, -187500.02, -187500.02, 0.000, 0.000, 0.000, 11:51:51.346
83, 21050.80, -187500.02, 45513.43, 66789.09, 107154.46, 37898.30, -187500.02, -187500.02, 0.062, 0.968, -0.128, 11:51:51.346
84, 20279.02, -187500.02, 46048.17, 66728.29, 107088.41, 37835.55, -187500.02, -187500.02, 0.000, 0.000, 0.000, 11:51:51.347
85, 20766.40, -187500.02, 46643.39, 66580.34, 106937.96, 37687.25, -187500.02, -187500.02, 0.000, 0.000, 0.000, 11:51:51.348
86, 21496.23, -187500.02, 46380.36, 66566.31, 106918.25, 37672.25, -187500.02, -187500.02, 0.000, 0.000, 0.000, 11:51:51.348
87, 21041.69, -187500.02, 45617.32, 66720.36, 107069.34, 37827.04, -187500.02, -187500.02, 0.000, 0.000, 0.000, 11:51:51.348
88, 19862.68, -187500.02, 45404.73, 66800.55, 107151.82, 37911.26, -187500.02, -187500.02, 0.000, 0.000, 0.000, 11:51:51.348
89, 19073.01, -187500.02, 45928.50, 66724.29, 107084.21, 37831.11, -187500.02, -187500.02, 0.000, 0.000, 0.000, 11:51:51.349
90, 19486.52, -187500.02, 46507.14, 66581.55, 106949.45, 37690.00, -187500.02, -187500.02, 0.000, 0.000, 0.000, 11:51:51.350
91, 20180.99, -187500.02, 46270.10, 66571.80, 106933.89, 37678.69, -187500.02, -187500.02, 0.000, 0.000, 0.000, 11:51:51.350
92, 19706.97, -187500.02, 45518.30, 66727.09, 107081.23, 37831.87, -187500.02, -187500.02, 0.000, 0.000, 0.000, 11:51:51.350
93, 18535.59, -187500.02, 45316.89, 66801.85, 107159.47, 37909.27, -187500.02, -187500.02, 0.060, 0.966, -0.122, 11:51:51.351
94, 17749.21, -187500.02, 45823.45, 66731.45, 107094.42, 37838.77, -187500.02, -187500.02, 0.000, 0.000, 0.000, 11:51:51.352
95, 18186.36, -187500.02, 46405.73, 66598.34, 106962.08, 37696.28, -187500.02, -187500.02, 0.000, 0.000, 0.000, 11:51:51.352
96, 18869.41, -187500.02, 46169.40, 66596.69, 106954.63, 37690.92, -187500.02, -187500.02, 0.000, 0.000, 0.000, 11:51:51.352
97, 18432.23, -187500.02, 45434.05, 66729.37, 107082.31, 37821.96, -187500.02, -187500.02, 0.000, 0.000, 0.000, 11:51:51.353
98, 17267.62, -187500.02, 45217.15, 66817.27, 107169.52, 37915.71, -187500.02, -187500.02, 0.000, 0.000, 0.000, 11:51:51.353
99, 16427.59, -187500.02, 45719.57, 66758.00, 107117.06, 37857.39, -187500.02, -187500.02, 0.000, 0.000, 0.000, 11:51:51.354
100, 16836.96, -187500.02, 46305.93, 66606.43, 106962.77, 37710.50, -187500.02, -187500.02, 0.000, 0.000, 0.000, 11:51:51.354
101, 17550.86, -187500.02, 46088.63, 66593.29, 106946.32, 37695.79, -187500.02, -187500.02, 0.000, 0.000, 0.000, 11:51:51.354
102, 17134.62, -187500.02, 45355.22, 66747.73, 107099.27, 37852.50, -187500.02, -187500.02, 0.000, 0.000, 0.000, 11:51:51.355
103, 15975.35, -187500.02, 45142.45, 66834.02, 107188.59, 37934.80, -187500.02, -187500.02, 0.058, 0.972, -0.126, 11:51:51.355
104, 15171.00, -187500.02, 45637.10, 66769.46, 107127.02, 37875.52, -187500.02, -187500.02, 0.000, 0.000, 0.000, 11:51:51.355
105, 15592.22, -187500.02, 46217.37, 66624.09, 106979.80, 37737.61, -187500.02, -187500.02, 0.000, 0.000, 0.000, 11:51:51.356
106, 16307.72, -187500.02, 45992.20, 66614.16, 106963.42, 37727.48, -187500.02, -187500.02, 0.000, 0.000, 0.000, 11:51:51.356
107, 15895.58, -187500.02, 45271.09, 66761.04, 107109.17, 37866.11, -187500.02, -187500.02, 0.000, 0.000, 0.000, 11:51:51.356
108, 14773.30, -187500.02, 45064.42, 66843.47, 107195.99, 37944.30, -187500.02, -187500.02, 0.000, 0.000, 0.000, 11:51:51.357
109, 13949.32, -187500.02, 45546.62, 66782.72, 107141.70, 37885.33, -187500.02, -187500.02, 0.000, 0.000, 0.000, 11:51:51.357
110, 14368.39, -187500.02, 46136.64, 66631.84, 106980.38, 37730.04, -187500.02, -187500.02, 0.000, 0.000, 0.000, 11:51:51.357
111, 15132.82, -187500.02, 45917.59, 66612.71, 106949.45, 37707.97, -187500.02, -187500.02, 0.000, 0.000, 0.000, 11:51:51.358
112, 14765.63, -187500.02, 45189.28, 66768.15, 107099.77, 37865.48, -187500.02, -187500.02, 0.000, 0.000, 0.000, 11:51:51.358
113, 13651.98, -187500.02, 44975.80, 66856.19, 107193.76, 37955.65, -187500.02, -187500.02, 0.060, 0.974, -0.122, 11:51:51.358
114, 12881.71, -187500.02, 45458.77, 66791.19, 107144.45, 37892.35, -187500.02, -187500.02, 0.000, 0.000, 0.000, 11:51:51.359
115, 13338.92, -187500.02, 46042.34, 66646.28, 107000.26, 37749.59, -187500.02, -187500.02, 0.000, 0.000, 0.000, 11:51:51.360
116, 14153.42, -187500.02, 45833.12, 66627.80, 106967.55, 37723.44, -187500.02, -187500.02, 0.000, 0.000, 0.000, 11:51:51.360
117, 13810.67, -187500.02, 45090.24, 66778.20, 107114.54, 37874.29, -187500.02, -187500.02, 0.000, 0.000, 0.000, 11:51:51.360
118, 12697.04, -187500.02, 44866.61, 66864.70, 107209.87, 37961.73, -187500.02, -187500.02, 0.000, 0.000, 0.000, 11:51:51.361
119, 11898.03, -187500.02, 45342.50, 66806.52, 107151.76, 37903.48, -187500.02, -187500.02, 0.000, 0.000, 0.000, 11:51:51.361
120, 12293.48, -187500.02, 45930.55, 66677.91, 107015.63, 37774.76, -187500.02, -187500.02, 0.000, 0.000, 0.000, 11:51:51.362
121, 13090.54, -187500.02, 45751.29, 66645.32, 106984.30, 37736.45, -187500.02, -187500.02, 0.000, 0.000, 0.000, 11:51:51.362
122, 12791.41, -187500.02, 45026.27, 66780.48, 107116.17, 37871.97, -187500.02, -187500.02, 0.000, 0.000, 0.000, 11:51:51.362
123, 11679.46, -187500.02, 44786.48, 66881.89, 107217.02, 37973.11, -187500.02, -187500.02, 0.060, 0.970, -0.112, 11:51:51.363
124, 10911.90, -187500.02, 45272.59, 66817.84, 107160.05, 37904.51, -187500.02, -187500.02, 0.000, 0.000, 0.000, 11:51:51.363
125, 11320.08, -187500.02, 45847.47, 66688.80, 107029.89, 37775.09, -187500.02, -187500.02, 0.000, 0.000, 0.000, 11:51:51.363
126, 12094.10, -187500.02, 45657.26, 66661.98, 107002.06, 37746.69, -187500.02, -187500.02, 0.000, 0.000, 0.000, 11:51:51.365
127, 11804.81, -187500.02, 44932.73, 66791.86, 107126.45, 37874.36, -187500.02, -187500.02, 0.000, 0.000, 0.000, 11:51:51.365
128, 10707.65, -187500.02, 44683.91, 66896.00, 107228.94, 37976.24, -187500.02, -187500.02, 0.000, 0.000, 0.000, 11:51:51.366
129, 9890.78, -187500.02, 45143.79, 66836.54, 107172.56, 37912.60, -187500.02, -187500.02, 0.000, 0.000, 0.000, 11:51:51.366
130, 10289.83, -187500.02, 45724.02, 66685.87, 107024.13, 37757.19, -187500.02, -187500.02, 0.000, 0.000, 0.000, 11:51:51.367
131, 11078.51, -187500.02, 45542.91, 66671.54, 107011.21, 37740.43, -187500.02, -187500.02, 0.000, 0.000, 0.000, 11:51:51.367
132, 10804.83, -187500.02, 44830.58, 66816.27, 107145.19, 37891.61, -187500.02, -187500.02, 0.058, 0.970, -0.114, 11:51:51.368
133, 9724.62, -187500.02, 44591.35, 66922.30, 107253.48, 38000.73, -187500.02, -187500.02, 0.000, 0.000, 0.000, 11:51:51.368
134, 8945.50, -187500.02, 45054.75, 66858.13, 107194.83, 37936.92, -187500.02, -187500.02, 0.000, 0.000, 0.000, 11:51:51.368
135, 9386.79, -187500.02, 45642.95, 66723.48, 107057.16, 37796.84, -187500.02, -187500.02, 0.000, 0.000, 0.000, 11:51:51.368
136, 10212.76, -187500.02, 45474.55, 66706.72, 107036.29, 37777.38, -187500.02, -187500.02, 0.000, 0.000, 0.000, 11:51:51.369
137, 9997.89, -187500.02, 44769.07, 66829.73, 107151.66, 37905.00, -187500.02, -187500.02, 0.000, 0.000, 0.000, 11:51:51.369
138, 8988.13, -187500.02, 44519.11, 66917.21, 107251.24, 37992.82, -187500.02, -187500.02, 0.000, 0.000, 0.000, 11:51:51.369
139, 8234.14, -187500.02, 44969.72, 66861.40, 107198.78, 37928.85, -187500.02, -187500.02, 0.000, 0.000, 0.000, 11:51:51.370
140, 8714.52, -187500.02, 45563.07, 66707.62, 107043.91, 37770.76, -187500.02, -187500.02, 0.000, 0.000, 0.000, 11:51:51.370
141, 9611.27, -187500.02, 45390.27, 66682.25, 107009.87, 37743.02, -187500.02, -187500.02, 0.000, 0.000, 0.000, 11:51:51.370
142, 9431.23, -187500.02, 44687.04, 66818.55, 107142.39, 37878.96, -187500.02, -187500.02, 0.058, 0.968, -0.116, 11:51:51.371
143, 8449.83, -187500.02, 44447.38, 66914.64, 107252.07, 37978.34, -187500.02, -187500.02, 0.000, 0.000, 0.000, 11:51:51.371
144, 7706.70, -187500.02, 44900.29, 66876.06, 107220.73, 37940.83, -187500.02, -187500.02, 0.000, 0.000, 0.000, 11:51:51.371
145, 8181.14, -187500.02, 45496.13, 66732.00, 107073.19, 37791.97, -187500.02, -187500.02, 0.000, 0.000, 0.000, 11:51:51.372
146, 9096.29, -187500.02, 45339.02, 66711.06, 107046.50, 37775.59, -187500.02, -187500.02, 0.000, 0.000, 0.000, 11:51:51.372
147, 8937.03, -187500.02, 44638.31, 66849.70, 107177.64, 37914.73, -187500.02, -187500.02, 0.000, 0.000, 0.000, 11:51:51.372
148, 7929.30, -187500.02, 44376.73, 66951.59, 107277.44, 38015.20, -187500.02, -187500.02, 0.000, 0.000, 0.000, 11:51:51.373
149, 7156.27, -187500.02, 44824.12, 66904.89, 107230.91, 37965.84, -187500.02, -187500.02, 0.000, 0.000, 0.000, 11:51:51.373
150, 7599.12, -187500.02, 45418.74, 66755.65, 107073.48, 37811.11, -187500.02, -187500.02, 0.000, 0.000, 0.000, 11:51:51.373
151, 8471.47, -187500.02, 45260.58, 66744.30, 107051.27, 37800.80, -187500.02, -187500.02, 0.000, 0.000, 0.000, 11:51:51.374
152, 8269.45, -187500.02, 44568.30, 66877.22, 107184.32, 37933.37, -187500.02, -187500.02, 0.056, 0.972, -0.116, 11:51:51.374
153, 7259.47, -187500.02, 44317.00, 66955.09, 107275.47, 38007.48, -187500.02, -187500.02, 0.000, 0.000, 0.000, 11:51:51.374
154, 6487.73, -187500.02, 44754.43, 66905.09, 107234.52, 37955.14, -187500.02, -187500.02, 0.000, 0.000, 0.000, 11:51:51.374
155, 6902.62, -187500.02, 45346.84, 66766.13, 107099.05, 37814.99, -187500.02, -187500.02, 0.000, 0.000, 0.000, 11:51:51.376
156, 7788.55, -187500.02, 45210.74, 66735.80, 107057.99, 37789.94, -187500.02, -187500.02, 0.000, 0.000, 0.000, 11:51:51.377
157, 7619.66, -187500.02, 44511.48, 66868.39, 107178.96, 37922.55, -187500.02, -187500.02, 0.000, 0.000, 0.000, 11:51:51.378
158, 6599.02, -187500.02, 44253.77, 66971.79, 107281.13, 38018.91, -187500.02, -187500.02, 0.000, 0.000, 0.000, 11:51:51.378
159, 5779.16, -187500.02, 44693.83, 66919.02, 107244.27, 37959.05, -187500.02, -187500.02, 0.000, 0.000, 0.000, 11:51:51.378
160, 6158.93, -187500.02, 45272.54, 66768.30, 107102.83, 37806.34, -187500.02, -187500.02, 0.000, 0.000, 0.000, 11:51:51.380
161, 7023.23, -187500.02, 45135.79, 66742.24, 107072.09, 37785.96, -187500.02, -187500.02, 0.000, 0.000, 0.000, 11:51:51.380
162, 6848.28, -187500.02, 44446.02, 66883.19, 107200.62, 37930.82, -187500.02, -187500.02, 0.058, 0.966, -0.122, 11:51:51.381
163, 5820.22, -187500.02, 44188.97, 66992.96, 107301.80, 38038.06, -187500.02, -187500.02, 0.000, 0.000, 0.000, 11:51:51.382
164, 4999.26, -187500.02, 44617.95, 66948.26, 107264.48, 37988.73, -187500.02, -187500.02, 0.000, 0.000, 0.000, 11:51:51.382
165, 5383.62, -187500.02, 45200.72, 66802.73, 107116.77, 37839.02, -187500.02, -187500.02, 0.000, 0.000, 0.000, 11:51:51.383
166, 6272.75, -187500.02, 45073.25, 66766.52, 107077.44, 37799.84, -187500.02, -187500.02, 0.000, 0.000, 0.000, 11:51:51.383
167, 6120.73, -187500.02, 44377.40, 66892.76, 107210.32, 37922.32, -187500.02, -187500.02, 0.000, 0.000, 0.000, 11:51:51.384
168, 5119.13, -187500.02, 44109.58, 66988.58, 107313.98, 38022.33, -187500.02, -187500.02, 0.000, 0.000, 0.000, 11:51:51.384
169, 4269.65, -187500.02, 44513.59, 66953.11, 107280.14, 37996.06, -187500.02, -187500.02, 0.000, 0.000, 0.000, 11:51:51.384
170, 4618.07, -187500.02, 45102.02, 66801.41, 107129.20, 37845.17, -187500.02, -187500.02, 0.000, 0.000, 0.000, 11:51:51.384
171, 5510.42, -187500.02, 44986.15, 66762.60, 107085.46, 37800.13, -187500.02, -187500.02, 0.000, 0.000, 0.000, 11:51:51.385
172, 5368.40, -187500.02, 44304.51, 66909.52, 107218.14, 37949.10, -187500.02, -187500.02, 0.056, 0.968, -0.118, 11:51:51.385
173, 4349.52, -187500.02, 44042.90, 67010.39, 107321.70, 38051.12, -187500.02, -187500.02, 0.000, 0.000, 0.000, 11:51:51.385
174, 3547.62, -187500.02, 44460.39, 66955.20, 107276.41, 37996.15, -187500.02, -187500.02, 0.000, 0.000, 0.000, 11:51:51.385
175, 3897.54, -187500.02, 45029.84, 66821.79, 107144.05, 37862.09, -187500.02, -187500.02, 0.000, 0.000, 0.000, 11:51:51.385
176, 4774.82, -187500.02, 44923.74, 66781.02, 107108.37, 37815.57, -187500.02, -187500.02, 0.000, 0.000, 0.000, 11:51:51.386
177, 4680.77, -187500.02, 44249.77, 66899.75, 107226.84, 37936.56, -187500.02, -187500.02, 0.000, 0.000, 0.000, 11:51:51.386
178, 3683.99, -187500.02, 43972.68, 67011.69, 107331.53, 38049.38, -187500.02, -187500.02, 0.000, 0.000, 0.000, 11:51:51.386
179, 2823.87, -187500.02, 44381.31, 66977.02, 107303.68, 38010.17, -187500.02, -187500.02, 0.000, 0.000, 0.000, 11:51:51.386
180, 3163.46, -187500.02, 44975.24, 66820.52, 107159.09, 37855.16, -187500.02, -187500.02, 0.000, 0.000, 0.000, 11:51:51.387
181, 4078.72, -187500.02, 44860.02, 66770.23, 107105.71, 37804.51, -187500.02, -187500.02, 0.000, 0.000, 0.000, 11:51:51.387
