%OpenBCI Raw EEG Data
%
%Sample Rate = 250.0 Hz
%First Column = SampleIndex
%Last Column = Timestamp 
%Other Columns = EEG data in microvolts followed by Accel Data (in G) interleaved with Aux Data
0, 0.00, 0.00, 0.00, 0.00, 0.00, 0.00, 0.00, 0.00, -20669.15, -26887.65, -19659.79, -19258.89, -34932.85, -47518.00, -70166.10, -51856.31, 0.000, 0.000, 0.000, 17:15:16.871
1, 68711.43, 78863.45, -46121.04, -38291.18, 3166.88, -15830.24, -17373.96, -18044.29, -20669.15, -26887.65, -19659.79, -19258.89, -34932.85, -47518.00, -70166.10, -51856.31, 0.024, 0.960, -0.136, 17:15:16.887
2, 68711.43, 78863.45, -46121.04, -38291.18, 3166.88, -15830.24, -17373.96, -18044.29, -47751.30, -61368.12, -41668.21, -42195.31, -66253.67, -97605.77, -13971.49, -26296.20, 0.000, 0.000, 0.000, 17:15:17.362
3, 137435.78, 157706.33, -92238.12, -76579.69, 6335.15, -31654.81, -34754.73, -36089.06, -47751.30, -61368.12, -41668.21, -42195.31, -66253.67, -97605.77, -13971.49, -26296.20, 0.000, 0.000, 0.000, 17:15:17.363
4, 137435.78, 157706.33, -92238.12, -76579.69, 6335.15, -31654.81, -34754.73, -36089.06, -47751.06, -61376.68, -41679.65, -42185.83, -66257.27, -97605.52, -13966.64, -26275.21, 0.000, 0.000, 0.000, 17:15:17.363
5, 137460.75, 157752.03, -92247.66, -76586.87, 6336.74, -31658.03, -34770.60, -36091.67, -47751.06, -61376.68, -41679.65, -42185.83, -66257.27, -97605.52, -13966.64, -26275.21, 0.000, 0.000, 0.000, 17:15:17.364
6, 137460.75, 157752.03, -92247.66, -76586.87, 6336.74, -31658.03, -34770.60, -36091.67, -47749.58, -61370.04, -41670.87, -42193.01, -66260.63, -97609.75, -13945.25, -26276.71, 0.000, 0.000, 0.000, 17:15:17.364
7, 137486.92, 157734.89, -92248.75, -76584.80, 6334.73, -31661.29, -34751.30, -36093.17, -47749.58, -61370.04, -41670.87, -42193.01, -66260.63, -97609.75, -13945.25, -26276.71, 0.000, 0.000, 0.000, 17:15:17.364
8, 137486.92, 157734.89, -92248.75, -76584.80, 6334.73, -31661.29, -34751.30, -36093.17, -47738.16, -61371.14, -41665.50, -42188.67, -66255.84, -97604.55, -13955.92, -26296.98, 0.072, 0.948, -0.240, 17:15:17.364
9, 137520.33, 157802.84, -92237.71, -76578.52, 6341.41, -31647.03, -34756.00, -36096.97, -47738.16, -61371.14, -41665.50, -42188.67, -66255.84, -97604.55, -13955.92, -26296.98, 0.000, 0.000, 0.000, 17:15:17.365
10, 137520.33, 157802.84, -92237.71, -76578.52, 6341.41, -31647.03, -34756.00, -36096.97, -47744.38, -61379.59, -41675.52, -42195.64, -66257.63, -97604.97, -13933.85, -26259.50, 0.000, 0.000, 0.000, 17:15:17.365
11, 137528.84, 157859.23, -92252.93, -76591.38, 6334.84, -31663.84, -34766.24, -36106.61, -47744.38, -61379.59, -41675.52, -42195.64, -66257.63, -97604.97, -13933.85, -26259.50, 0.000, 0.000, 0.000, 17:15:17.366
12, 137528.84, 157859.23, -92252.93, -76591.38, 6334.84, -31663.84, -34766.24, -36106.61, -47750.48, -61387.81, -41671.32, -42207.40, -66263.94, -97614.36, -13943.38, -26294.23, 0.000, 0.000, 0.000, 17:15:17.366
13, 137543.83, 157818.75, -92257.56, -76599.76, 6328.09, -31666.81, -34762.13, -36096.10, -47750.48, -61387.81, -41671.32, -42207.40, -66263.94, -97614.36, -13943.38, -26294.23, 0.000, 0.000, 0.000, 17:15:17.366
14, 137543.83, 157818.75, -92257.56, -76599.76, 6328.09, -31666.81, -34762.13, -36096.10, -47747.50, -61386.65, -41656.01, -42197.97, -66255.82, -97607.67, -13943.62, -26285.23, 0.000, 0.000, 0.000, 17:15:17.367
15, 137580.13, 157839.86, -92237.40, -76585.30, 6343.07, -31642.56, -34753.00, -36100.99, -47747.50, -61386.65, -41656.01, -42197.97, -66255.82, -97607.67, -13943.62, -26285.23, 0.000, 0.000, 0.000, 17:15:17.367
16, 137580.13, 157839.86, -92237.40, -76585.30, 6343.07, -31642.56, -34753.00, -36100.99, -47744.24, -61380.08, -41660.57, -42198.80, -66249.09, -97603.83, -13954.86, -26281.49, 0.000, 0.000, 0.000, 17:15:17.367
17, 137581.36, 157762.92, -92239.97, -76587.96, 6339.40, -31649.69, -34760.27, -36107.41, -47744.24, -61380.08, -41660.57, -42198.80, -66249.09, -97603.83, -13954.86, -26281.49, 0.000, 0.000, 0.000, 17:15:17.367
18, 137581.36, 157762.92, -92239.97, -76587.96, 6339.40, -31649.69, -34760.27, -36107.41, -47740.57, -61385.00, -41673.51, -42191.35, -66250.45, -97602.27, -13969.15, -26299.04, 0.074, 0.942, -0.240, 17:15:17.368
19, 137591.67, 157727.58, -92244.06, -76600.79, 6335.00, -31645.24, -34762.50, -36098.42, -47740.57, -61385.00, -41673.51, -42191.35, -66250.45, -97602.27, -13969.15, -26299.04, 0.000, 0.000, 0.000, 17:15:17.368
20, 137591.67, 157727.58, -92244.06, -76600.79, 6335.00, -31645.24, -34762.50, -36098.42, -47739.55, -61381.62, -41669.17, -42196.29, -66253.16, -97606.51, -13938.03, -26266.81, 0.000, 0.000, 0.000, 17:15:17.368
21, 137596.55, 157722.67, -92241.96, -76597.55, 6336.38, -31645.11, -34764.02, -36100.05, -47739.55, -61381.62, -41669.17, -42196.29, -66253.16, -97606.51, -13938.03, -26266.81, 0.000, 0.000, 0.000, 17:15:17.368
22, 137596.55, 157722.67, -92241.96, -76597.55, 6336.38, -31645.11, -34764.02, -36100.05, -47738.81, -61382.70, -41663.67, -42208.30, -66254.01, -97607.27, -13975.63, -26317.48, 0.000, 0.000, 0.000, 17:15:17.369
23, 137599.38, 157693.08, -92246.80, -76609.71, 6330.75, -31650.00, -34765.23, -36093.15, -47738.81, -61382.70, -41663.67, -42208.30, -66254.01, -97607.27, -13975.63, -26317.48, 0.000, 0.000, 0.000, 17:15:17.369
24, 137599.38, 157693.08, -92246.80, -76609.71, 6330.75, -31650.00, -34765.23, -36093.15, -47750.97, -61397.27, -41673.17, -42208.23, -66263.51, -97617.71, -13943.24, -26285.74, 0.000, 0.000, 0.000, 17:15:17.369
25, 137593.36, 157725.73, -92248.84, -76611.65, 6304.44, -31663.35, -34772.03, -36105.33, -47750.97, -61397.27, -41673.17, -42208.23, -66263.51, -97617.71, -13943.24, -26285.74, 0.000, 0.000, 0.000, 17:15:17.369
26, 137593.36, 157725.73, -92248.84, -76611.65, 6304.44, -31663.35, -34772.03, -36105.33, -47748.71, -61397.11, -41680.41, -42215.02, -66257.30, -97611.38, -13927.62, -26282.54, 0.000, 0.000, 0.000, 17:15:17.369
27, 137595.72, 157671.03, -92246.80, -76608.01, 6291.37, -31661.47, -34762.32, -36108.19, -47748.71, -61397.11, -41680.41, -42215.02, -66257.30, -97611.38, -13927.62, -26282.54, 0.000, 0.000, 0.000, 17:15:17.370
28, 137595.72, 157671.03, -92246.80, -76608.01, 6291.37, -31661.47, -34762.32, -36108.19, -47738.27, -61377.73, -41663.11, -42201.77, -66255.73, -97609.48, -13951.13, -26313.63, 0.076, 0.944, -0.240, 17:15:17.370
29, 137614.19, 157655.47, -92248.69, -76610.63, 6298.48, -31655.46, -34766.84, -36095.68, -47738.27, -61377.73, -41663.11, -42201.77, -66255.73, -97609.48, -13951.13, -26313.63, 0.000, 0.000, 0.000, 17:15:17.370
30, 137614.19, 157655.47, -92248.69, -76610.63, 6298.48, -31655.46, -34766.84, -36095.68, -47739.73, -61401.27, -41659.58, -42206.69, -66253.92, -97607.63, -13937.07, -26277.20, 0.000, 0.000, 0.000, 17:15:17.370
31, 137618.77, 157662.53, -92249.76, -76606.71, 6302.88, -31673.05, -34777.48, -36112.93, -47739.73, -61401.27, -41659.58, -42206.69, -66253.92, -97607.63, -13937.07, -26277.20, 0.000, 0.000, 0.000, 17:15:17.370
32, 137618.77, 157662.53, -92249.76, -76606.71, 6302.88, -31673.05, -34777.48, -36112.93, -47737.87, -61405.85, -41674.25, -42232.14, -66252.09, -97604.56, -13953.99, -26317.28, 0.000, 0.000, 0.000, 17:15:17.371
33, 137622.33, 157627.05, -92249.36, -76606.27, 6309.23, -31676.31, -34776.79, -36110.80, -47737.87, -61405.85, -41674.25, -42232.14, -66252.09, -97604.56, -13953.99, -26317.28, 0.000, 0.000, 0.000, 17:15:17.371
34, 137622.33, 157627.05, -92249.36, -76606.27, 6309.23, -31676.31, -34776.79, -36110.80, -47734.25, -61412.33, -41664.34, -42223.47, -66254.63, -97602.58, -13942.12, -26302.46, 0.000, 0.000, 0.000, 17:15:17.371
35, 137628.77, 157643.78, -92247.45, -76600.27, 6319.80, -31670.63, -34760.85, -36089.64, -47734.25, -61412.33, -41664.34, -42223.47, -66254.63, -97602.58, -13942.12, -26302.46, 0.000, 0.000, 0.000, 17:15:17.371
36, 137628.77, 157643.78, -92247.45, -76600.27, 6319.80, -31670.63, -34760.85, -36089.64, -47729.60, -61427.02, -41650.42, -42238.16, -66259.17, -97604.68, -13944.72, -26304.18, 0.000, 0.000, 0.000, 17:15:17.371
37, 137609.50, 157620.20, -92255.95, -76600.59, 6310.17, -31674.86, -34789.89, -36105.02, -47729.60, -61427.02, -41650.42, -42238.16, -66259.17, -97604.68, -13944.72, -26304.18, 0.000, 0.000, 0.000, 17:15:17.372
38, 137609.50, 157620.20, -92255.95, -76600.59, 6310.17, -31674.86, -34789.89, -36105.02, -47720.13, -61434.62, -41661.66, -42233.62, -66252.31, -97596.81, -13963.13, -26335.25, 0.070, 0.950, -0.242, 17:15:17.372
39, 137613.67, 157632.52, -92256.42, -76595.09, 6309.25, -31673.54, -34791.36, -36087.38, -47720.13, -61434.62, -41661.66, -42233.62, -66252.31, -97596.81, -13963.13, -26335.25, 0.000, 0.000, 0.000, 17:15:17.372
40, 137613.67, 157632.52, -92256.42, -76595.09, 6309.25, -31673.54, -34791.36, -36087.38, -47723.66, -61441.50, -41666.15, -42252.66, -66264.47, -97606.22, -13934.26, -26304.67, 0.000, 0.000, 0.000, 17:15:17.373
41, 137605.17, 157651.03, -92263.44, -76590.98, 6307.21, -31683.26, -34793.35, -36114.27, -47723.66, -61441.50, -41666.15, -42252.66, -66264.47, -97606.22, -13934.26, -26304.67, 0.000, 0.000, 0.000, 17:15:17.373
42, 137605.17, 157651.03, -92263.44, -76590.98, 6307.21, -31683.26, -34793.35, -36114.27, -47714.36, -61456.50, -41659.92, -42254.54, -66266.46, -97609.55, -13959.04, -26344.99, 0.000, 0.000, 0.000, 17:15:17.373
43, 137585.78, 157624.97, -92268.16, -76588.14, 6304.11, -31677.56, -34803.86, -36115.50, -47714.36, -61456.50, -41659.92, -42254.54, -66266.46, -97609.55, -13959.04, -26344.99, 0.000, 0.000, 0.000, 17:15:17.374
44, 137585.78, 157624.97, -92268.16, -76588.14, 6304.11, -31677.56, -34803.86, -36115.50, -47711.03, -61466.33, -41651.65, -42254.45, -66271.52, -97613.10, -13947.00, -26327.65, 0.000, 0.000, 0.000, 17:15:17.375
45, 137580.23, 157656.45, -92274.73, -76593.26, 6300.24, -31671.01, -34805.89, -36109.24, -47711.03, -61466.33, -41651.65, -42254.45, -66271.52, -97613.10, -13947.00, -26327.65, 0.000, 0.000, 0.000, 17:15:17.377
46, 137580.23, 157656.45, -92274.73, -76593.26, 6300.24, -31671.01, -34805.89, -36109.24, -47715.95, -61476.46, -41652.00, -42286.95, -66285.44, -97631.32, -13938.53, -26329.64, 0.000, 0.000, 0.000, 17:15:17.377
47, 137559.22, 157642.42, -92286.08, -76592.45, 6297.09, -31697.86, -34808.37, -36120.62, -47715.95, -61476.46, -41652.00, -42286.95, -66285.44, -97631.32, -13938.53, -26329.64, 0.000, 0.000, 0.000, 17:15:17.377
48, 137559.22, 157642.42, -92286.08, -76592.45, 6297.09, -31697.86, -34808.37, -36120.62, -47725.22, -61489.22, -41669.75, -42289.19, -66294.35, -97637.52, -13947.22, -26361.24, 0.064, 0.946, -0.242, 17:15:17.378
49, 137582.83, 157668.73, -92280.98, -76583.58, 6303.88, -31685.68, -34800.57, -36106.20, -47725.22, -61489.22, -41669.75, -42289.19, -66294.35, -97637.52, -13947.22, -26361.24, 0.000, 0.000, 0.000, 17:15:17.378
50, 137582.83, 157668.73, -92280.98, -76583.58, 6303.88, -31685.68, -34800.57, -36106.20, -47716.57, -61468.66, -41665.80, -42260.09, -66278.95, -97624.46, -13924.15, -26322.64, 0.000, 0.000, 0.000, 17:15:17.378
51, 137582.67, 157680.02, -92271.80, -76576.78, 6305.81, -31692.04, -34796.08, -36116.15, -47716.57, -61468.66, -41665.80, -42260.09, -66278.95, -97624.46, -13924.15, -26322.64, 0.000, 0.000, 0.000, 17:15:17.378
52, 137582.67, 157680.02, -92271.80, -76576.78, 6305.81, -31692.04, -34796.08, -36116.15, -47714.94, -61474.67, -41655.85, -42286.70, -66281.73, -97628.86, -13944.25, -26368.58, 0.000, 0.000, 0.000, 17:15:17.379
53, 137568.39, 157637.45, -92271.98, -76574.99, 6311.60, -31695.44, -34797.26, -36114.41, -47714.94, -61474.67, -41655.85, -42286.70, -66281.73, -97628.86, -13944.25, -26368.58, 0.000, 0.000, 0.000, 17:15:17.379
54, 137568.39, 157637.45, -92271.98, -76574.99, 6311.60, -31695.44, -34797.26, -36114.41, -47717.13, -61472.86, -41650.55, -42274.97, -66283.94, -97629.55, -13942.39, -26354.20, 0.000, 0.000, 0.000, 17:15:17.379
55, 137572.91, 157670.52, -92273.32, -76575.40, 6309.94, -31695.49, -34807.79, -36105.46, -47717.13, -61472.86, -41650.55, -42274.97, -66283.94, -97629.55, -13942.39, -26354.20, 0.000, 0.000, 0.000, 17:15:17.379
56, 137572.91, 157670.52, -92273.32, -76575.40, 6309.94, -31695.49, -34807.79, -36105.46, -47717.89, -61473.84, -41662.38, -42283.66, -66288.88, -97633.35, -13921.20, -26348.73, 0.000, 0.000, 0.000, 17:15:17.379
57, 137558.17, 157651.11, -92282.10, -76580.60, 6304.56, -31710.98, -34796.30, -36105.22, -47717.89, -61473.84, -41662.38, -42283.66, -66288.88, -97633.35, -13921.20, -26348.73, 0.000, 0.000, 0.000, 17:15:17.380
58, 137558.17, 157651.11, -92282.10, -76580.60, 6304.56, -31710.98, -34796.30, -36105.22, -47721.38, -61485.78, -41674.40, -42289.52, -66298.27, -97643.70, -13917.60, -26368.58, 0.066, 0.948, -0.244, 17:15:17.380
59, 137556.19, 157651.11, -92291.71, -76588.34, 6296.33, -31712.65, -34828.82, -36116.73, -47721.38, -61485.78, -41674.40, -42289.52, -66298.27, -97643.70, -13917.60, -26368.58, 0.000, 0.000, 0.000, 17:15:17.380
60, 137556.19, 157651.11, -92291.71, -76588.34, 6296.33, -31712.65, -34828.82, -36116.73, -47722.87, -61486.09, -41690.52, -42296.47, -66297.73, -97641.40, -13908.08, -26344.93, 0.000, 0.000, 0.000, 17:15:17.380
61, 137547.47, 157644.66, -92292.02, -76582.84, 6296.73, -31723.65, -34822.70, -36109.60, -47722.87, -61486.09, -41690.52, -42296.47, -66297.73, -97641.40, -13908.08, -26344.93, 0.000, 0.000, 0.000, 17:15:17.380
62, 137547.47, 157644.66, -92292.02, -76582.84, 6296.73, -31723.65, -34822.70, -36109.60, -47714.16, -61483.86, -41675.32, -42298.04, -66293.13, -97634.49, -13939.51, -26392.11, 0.000, 0.000, 0.000, 17:15:17.380
63, 137558.28, 157598.50, -92284.49, -76574.68, 6314.66, -31714.44, -34796.68, -36116.89, -47714.16, -61483.86, -41675.32, -42298.04, -66293.13, -97634.49, -13939.51, -26392.11, 0.000, 0.000, 0.000, 17:15:17.381
64, 137558.28, 157598.50, -92284.49, -76574.68, 6314.66, -31714.44, -34796.68, -36116.89, -47722.00, -61484.95, -41673.69, -42298.33, -66301.95, -97641.83, -13925.61, -26357.04, 0.000, 0.000, 0.000, 17:15:17.381
65, 137568.03, 157641.81, -92285.61, -76582.64, 6311.57, -31719.25, -34801.02, -36116.37, -47722.00, -61484.95, -41673.69, -42298.33, -66301.95, -97641.83, -13925.61, -26357.04, 0.000, 0.000, 0.000, 17:15:17.381
66, 137568.03, 157641.81, -92285.61, -76582.64, 6311.57, -31719.25, -34801.02, -36116.37, -47718.07, -61482.34, -41663.96, -42292.32, -66302.05, -97645.54, -13907.30, -26363.01, 0.000, 0.000, 0.000, 17:15:17.381
67, 137545.25, 157616.86, -92290.28, -76591.52, 6308.89, -31733.11, -34795.77, -36111.88, -47718.07, -61482.34, -41663.96, -42292.32, -66302.05, -97645.54, -13907.30, -26363.01, 0.000, 0.000, 0.000, 17:15:17.381
68, 137545.25, 157616.86, -92290.28, -76591.52, 6308.89, -31733.11, -34795.77, -36111.88, -47718.20, -61492.11, -41676.73, -42294.42, -66300.81, -97641.18, -13917.25, -26396.72, 0.074, 0.946, -0.246, 17:15:17.382
69, 137564.77, 157634.95, -92280.94, -76564.42, 6311.53, -31718.04, -34797.60, -36117.85, -47718.20, -61492.11, -41676.73, -42294.42, -66300.81, -97641.18, -13917.25, -26396.72, 0.000, 0.000, 0.000, 17:15:17.382
70, 137564.77, 157634.95, -92280.94, -76564.42, 6311.53, -31718.04, -34797.60, -36117.85, -47707.27, -61475.57, -41675.43, -42290.71, -66286.40, -97627.63, -13895.34, -26362.74, 0.000, 0.000, 0.000, 17:15:17.382
71, 137565.94, 157660.34, -92281.48, -76565.72, 6321.86, -31731.29, -34784.81, -36110.92, -47707.27, -61475.57, -41675.43, -42290.71, -66286.40, -97627.63, -13895.34, -26362.74, 0.000, 0.000, 0.000, 17:15:17.382
72, 137565.94, 157660.34, -92281.48, -76565.72, 6321.86, -31731.29, -34784.81, -36110.92, -47710.11, -61479.50, -41673.71, -42303.29, -66293.06, -97633.60, -13911.52, -26400.09, 0.000, 0.000, 0.000, 17:15:17.385
73, 137558.31, 157650.11, -92284.54, -76566.48, 6326.04, -31733.69, -34788.81, -36109.62, -47710.11, -61479.50, -41673.71, -42303.29, -66293.06, -97633.60, -13911.52, -26400.09, 0.000, 0.000, 0.000, 17:15:17.385
74, 137558.31, 157650.11, -92284.54, -76566.48, 6326.04, -31733.69, -34788.81, -36109.62, -47714.34, -61481.71, -41674.13, -42302.95, -66298.83, -97640.04, -13883.63, -26366.90, 0.000, 0.000, 0.000, 17:15:17.385
75, 137553.86, 157690.02, -92289.52, -76573.01, 6320.65, -31729.37, -34797.89, -36110.40, -47714.34, -61481.71, -41674.13, -42302.95, -66298.83, -97640.04, -13883.63, -26366.90, 0.000, 0.000, 0.000, 17:15:17.385
76, 137553.86, 157690.02, -92289.52, -76573.01, 6320.65, -31729.37, -34797.89, -36110.40, -47710.54, -61475.86, -41654.69, -42295.22, -66293.62, -97637.13, -13870.26, -26370.52, 0.000, 0.000, 0.000, 17:15:17.385
77, 137539.28, 157643.97, -92283.58, -76568.54, 6324.16, -31729.33, -34800.46, -36101.38, -47710.54, -61475.86, -41654.69, -42295.22, -66293.62, -97637.13, -13870.26, -26370.52, 0.000, 0.000, 0.000, 17:15:17.385
78, 137539.28, 157643.97, -92283.58, -76568.54, 6324.16, -31729.33, -34800.46, -36101.38, -47711.14, -61470.07, -41681.29, -42304.32, -66293.57, -97637.85, -13894.96, -26400.74, 0.076, 0.938, -0.250, 17:15:17.386
79, 137544.45, 157657.00, -92278.15, -76565.02, 6319.53, -31723.81, -34797.75, -36107.10, -47711.14, -61470.07, -41681.29, -42304.32, -66293.57, -97637.85, -13894.96, -26400.74, 0.000, 0.000, 0.000, 17:15:17.386
80, 137544.45, 157657.00, -92278.15, -76565.02, 6319.53, -31723.81, -34797.75, -36107.10, -47709.11, -61474.43, -41689.27, -42281.74, -66296.28, -97636.24, -13860.79, -26359.66, 0.000, 0.000, 0.000, 17:15:17.386
81, 137531.83, 157673.61, -92281.61, -76560.76, 6315.08, -31732.26, -34796.28, -36111.21, -47709.11, -61474.43, -41689.27, -42281.74, -66296.28, -97636.24, -13860.79, -26359.66, 0.000, 0.000, 0.000, 17:15:17.386
82, 137531.83, 157673.61, -92281.61, -76560.76, 6315.08, -31732.26, -34796.28, -36111.21, -47711.20, -61479.79, -41678.52, -42310.84, -66295.61, -97638.48, -13875.05, -26400.22, 0.000, 0.000, 0.000, 17:15:17.386
83, 137529.67, 157637.39, -92276.16, -76561.59, 6322.06, -31734.49, -34799.74, -36110.52, -47711.20, -61479.79, -41678.52, -42310.84, -66295.61, -97638.48, -13875.05, -26400.22, 0.000, 0.000, 0.000, 17:15:17.387
84, 137529.67, 157637.39, -92276.16, -76561.59, 6322.06, -31734.49, -34799.74, -36110.52, -47714.71, -61470.27, -41678.34, -42296.65, -66294.65, -97635.05, -13863.96, -26390.55, 0.000, 0.000, 0.000, 17:15:17.387
85, 137533.47, 157675.95, -92284.36, -76569.88, 6320.80, -31730.76, -34804.84, -36106.38, -47714.71, -61470.27, -41678.34, -42296.65, -66294.65, -97635.05, -13863.96, -26390.55, 0.000, 0.000, 0.000, 17:15:17.387
86, 137533.47, 157675.95, -92284.36, -76569.88, 6320.80, -31730.76, -34804.84, -36106.38, -47722.49, -61484.02, -41679.59, -42307.87, -66304.55, -97644.15, -13848.47, -26380.78, 0.000, 0.000, 0.000, 17:15:17.387
87, 137516.06, 157621.33, -92294.73, -76572.89, 6325.16, -31742.31, -34806.43, -36111.23, -47722.49, -61484.02, -41679.59, -42307.87, -66304.55, -97644.15, -13848.47, -26380.78, 0.000, 0.000, 0.000, 17:15:17.388
88, 137516.06, 157621.33, -92294.73, -76572.89, 6325.16, -31742.31, -34806.43, -36111.23, -47719.25, -61480.80, -41691.19, -42305.04, -66303.66, -97642.90, -13876.03, -26422.55, 0.074, 0.942, -0.250, 17:15:17.388
89, 137544.31, 157617.70, -92279.15, -76557.70, 6325.68, -31720.30, -34786.27, -36097.13, -47719.25, -61480.80, -41691.19, -42305.04, -66303.66, -97642.90, -13876.03, -26422.55, 0.000, 0.000, 0.000, 17:15:17.388
90, 137544.31, 157617.70, -92279.15, -76557.70, 6325.68, -31720.30, -34786.27, -36097.13, -47718.98, -61473.80, -41692.86, -42300.86, -66298.52, -97636.38, -13845.12, -26372.60, 0.000, 0.000, 0.000, 17:15:17.388
91, 137533.94, 157641.58, -92289.10, -76566.63, 6326.46, -31729.75, -34789.13, -36106.80, -47718.98, -61473.80, -41692.86, -42300.86, -66298.52, -97636.38, -13845.12, -26372.60, 0.000, 0.000, 0.000, 17:15:17.389
92, 137533.94, 157641.58, -92289.10, -76566.63, 6326.46, -31729.75, -34789.13, -36106.80, -47723.68, -61485.22, -41691.90, -42311.36, -66306.88, -97648.30, -13847.55, -26408.67, 0.000, 0.000, 0.000, 17:15:17.389
93, 137524.53, 157623.11, -92291.18, -76577.77, 6328.90, -31734.47, -34798.04, -36108.15, -47723.68, -61485.22, -41691.90, -42311.36, -66306.88, -97648.30, -13847.55, -26408.67, 0.000, 0.000, 0.000, 17:15:17.389
94, 137524.53, 157623.11, -92291.18, -76577.77, 6328.90, -31734.47, -34798.04, -36108.15, -47728.95, -61494.72, -41692.04, -42311.56, -66307.61, -97651.13, -13836.47, -26398.86, 0.000, 0.000, 0.000, 17:15:17.390
95, 137522.36, 157657.23, -92297.44, -76583.35, 6337.57, -31734.22, -34796.88, -36114.47, -47728.95, -61494.72, -41692.04, -42311.56, -66307.61, -97651.13, -13836.47, -26398.86, 0.000, 0.000, 0.000, 17:15:17.390
96, 137522.36, 157657.23, -92297.44, -76583.35, 6337.57, -31734.22, -34796.88, -36114.47, -47724.35, -61486.92, -41700.51, -42321.51, -66310.05, -97652.96, -13828.87, -26393.56, 0.000, 0.000, 0.000, 17:15:17.390
97, 137513.31, 157637.48, -92298.28, -76583.87, 6349.97, -31740.53, -34769.48, -36108.08, -47724.35, -61486.92, -41700.51, -42321.51, -66310.05, -97652.96, -13828.87, -26393.56, 0.000, 0.000, 0.000, 17:15:17.391
98, 137513.31, 157637.48, -92298.28, -76583.87, 6349.97, -31740.53, -34769.48, -36108.08, -47721.22, -61473.80, -41704.40, -42312.81, -66305.62, -97649.20, -13832.58, -26416.72, 0.076, 0.940, -0.252, 17:15:17.391
99, 137512.91, 157657.31, -92288.88, -76579.63, 6350.29, -31728.41, -34769.21, -36101.02, -47721.22, -61473.80, -41704.40, -42312.81, -66305.62, -97649.20, -13832.58, -26416.72, 0.000, 0.000, 0.000, 17:15:17.391
100, 137512.91, 157657.31, -92288.88, -76579.63, 6350.29, -31728.41, -34769.21, -36101.02, -47715.95, -61471.79, -41698.77, -42305.44, -66300.48, -97642.03, -13829.60, -26402.82, 0.000, 0.000, 0.000, 17:15:17.392
101, 137495.48, 157658.88, -92286.21, -76575.06, 6349.64, -31730.47, -34777.14, -36101.17, -47715.95, -61471.79, -41698.77, -42305.44, -66300.48, -97642.03, -13829.60, -26402.82, 0.000, 0.000, 0.000, 17:15:17.392
102, 137495.48, 157658.88, -92286.21, -76575.06, 6349.64, -31730.47, -34777.14, -36101.17, -47706.54, -61476.57, -41694.70, -42303.40, -66297.46, -97633.38, -13852.83, -26439.16, 0.000, 0.000, 0.000, 17:15:17.392
103, 137490.17, 157633.75, -92288.70, -76574.68, 6355.81, -31731.90, -34773.01, -36095.00, -47706.54, -61476.57, -41694.70, -42303.40, -66297.46, -97633.38, -13852.83, -26439.16, 0.000, 0.000, 0.000, 17:15:17.392
104, 137490.17, 157633.75, -92288.70, -76574.68, 6355.81, -31731.90, -34773.01, -36095.00, -47719.99, -61485.98, -41690.09, -42304.41, -66311.16, -97641.24, -13828.00, -26408.54, 0.000, 0.000, 0.000, 17:15:17.393
105, 137488.77, 157668.03, -92302.51, -76593.81, 6362.85, -31742.16, -34774.08, -36090.67, -47719.99, -61485.98, -41690.09, -42304.41, -66311.16, -97641.24, -13828.00, -26408.54, 0.000, 0.000, 0.000, 17:15:17.393
106, 137488.77, 157668.03, -92302.51, -76593.81, 6362.85, -31742.16, -34774.08, -36090.67, -47720.30, -61488.39, -41693.56, -42320.86, -66310.13, -97641.73, -13814.65, -26408.70, 0.000, 0.000, 0.000, 17:15:17.393
107, 137475.97, 157623.56, -92293.97, -76571.58, 6373.51, -31740.88, -34767.06, -36099.77, -47720.30, -61488.39, -41693.56, -42320.86, -66310.13, -97641.73, -13814.65, -26408.70, 0.000, 0.000, 0.000, 17:15:17.393
108, 137475.97, 157623.56, -92293.97, -76571.58, 6373.51, -31740.88, -34767.06, -36099.77, -47706.98, -61481.38, -41706.83, -42313.32, -66302.45, -97628.21, -13848.49, -26449.29, 0.068, 0.942, -0.256, 17:15:17.394
109, 137480.45, 157643.09, -92299.27, -76578.77, 6360.37, -31736.23, -34780.16, -36094.45, -47706.98, -61481.38, -41706.83, -42313.32, -66302.45, -97628.21, -13848.49, -26449.29, 0.000, 0.000, 0.000, 17:15:17.394
110, 137480.45, 157643.09, -92299.27, -76578.77, 6360.37, -31736.23, -34780.16, -36094.45, -47725.40, -61490.88, -41718.10, -42335.03, -66318.80, -97645.16, -13810.11, -26399.62, 0.000, 0.000, 0.000, 17:15:17.395
111, 137459.61, 157658.05, -92308.37, -76591.31, 6355.79, -31755.73, -34787.16, -36105.26, -47725.40, -61490.88, -41718.10, -42335.03, -66318.80, -97645.16, -13810.11, -26399.62, 0.000, 0.000, 0.000, 17:15:17.395
112, 137459.61, 157658.05, -92308.37, -76591.31, 6355.79, -31755.73, -34787.16, -36105.26, -47720.46, -61487.52, -41711.39, -42332.13, -66315.97, -97647.41, -13833.38, -26445.46, 0.000, 0.000, 0.000, 17:15:17.395
113, 137463.27, 157625.80, -92306.69, -76586.22, 6366.58, -31755.17, -34778.44, -36077.37, -47720.46, -61487.52, -41711.39, -42332.13, -66315.97, -97647.41, -13833.38, -26445.46, 0.000, 0.000, 0.000, 17:15:17.395
114, 137463.27, 157625.80, -92306.69, -76586.22, 6366.58, -31755.17, -34778.44, -36077.37, -47726.32, -61505.25, -41707.79, -42332.14, -66329.25, -97655.41, -13826.41, -26434.42, 0.000, 0.000, 0.000, 17:15:17.395
115, 137467.73, 157669.06, -92316.30, -76599.05, 6354.78, -31764.33, -34797.13, -36091.96, -47726.32, -61505.25, -41707.79, -42332.14, -66329.25, -97655.41, -13826.41, -26434.42, 0.000, 0.000, 0.000, 17:15:17.396
116, 137467.73, 157669.06, -92316.30, -76599.05, 6354.78, -31764.33, -34797.13, -36091.96, -47723.90, -61505.70, -41705.27, -42334.92, -66324.42, -97653.54, -13818.14, -26434.98, 0.000, 0.000, 0.000, 17:15:17.396
117, 137467.89, 157638.72, -92300.48, -76581.97, 6372.73, -31757.65, -34783.79, -36083.65, -47723.90, -61505.70, -41705.27, -42334.92, -66324.42, -97653.54, -13818.14, -26434.98, 0.000, 0.000, 0.000, 17:15:17.396
118, 137467.89, 157638.72, -92300.48, -76581.97, 6372.73, -31757.65, -34783.79, -36083.65, -47719.50, -61485.13, -41709.85, -42321.95, -66314.72, -97645.07, -13837.47, -26463.44, 0.062, 0.946, -0.266, 17:15:17.396
119, 137476.98, 157667.70, -92306.38, -76599.56, 6369.55, -31755.05, -34802.38, -36084.30, -47719.50, -61485.13, -41709.85, -42321.95, -66314.72, -97645.07, -13837.47, -26463.44, 0.000, 0.000, 0.000, 17:15:17.396
120, 137476.98, 157667.70, -92306.38, -76599.56, 6369.55, -31755.05, -34802.38, -36084.30, -47732.59, -61499.44, -41711.80, -42340.91, -66325.54, -97656.55, -13799.18, -26417.23, 0.000, 0.000, 0.000, 17:15:17.397
121, 137460.91, 157692.38, -92317.10, -76606.96, 6355.23, -31767.62, -34807.21, -36090.27, -47732.59, -61499.44, -41711.80, -42340.91, -66325.54, -97656.55, -13799.18, -26417.23, 0.000, 0.000, 0.000, 17:15:17.397
122, 137460.91, 157692.38, -92317.10, -76606.96, 6355.23, -31767.62, -34807.21, -36090.27, -47726.07, -61495.61, -41717.99, -42335.79, -66320.69, -97655.51, -13816.26, -26462.27, 0.000, 0.000, 0.000, 17:15:17.843
123, 137445.05, 157656.27, -92308.79, -76599.94, 6367.03, -31761.13, -34793.08, -36072.12, -47726.07, -61495.61, -41717.99, -42335.79, -66320.69, -97655.51, -13816.26, -26462.27, 0.000, 0.000, 0.000, 17:15:17.843
124, 137445.05, 157656.27, -92308.79, -76599.94, 6367.03, -31761.13, -34793.08, -36072.12, -47726.56, -61498.32, -41729.25, -42331.05, -66320.46, -97651.98, -13825.31, -26453.69, 0.000, 0.000, 0.000, 17:15:17.843
125, 137454.11, 157693.97, -92308.50, -76595.67, 6366.04, -31763.50, -34795.85, -36062.44, -47726.56, -61498.32, -41729.25, -42331.05, -66320.46, -97651.98, -13825.31, -26453.69, 0.000, 0.000, 0.000, 17:15:17.843
126, 137454.11, 157693.97, -92308.50, -76595.67, 6366.04, -31763.50, -34795.85, -36062.44, -47724.64, -61496.26, -41718.61, -42323.52, -66319.86, -97650.39, -13826.88, -26449.91, 0.000, 0.000, 0.000, 17:15:17.844
127, 137436.80, 157667.03, -92305.21, -76595.11, 6372.71, -31764.60, -34800.05, -36072.25, -47724.64, -61496.26, -41718.61, -42323.52, -66319.86, -97650.39, -13826.88, -26449.91, 0.000, 0.000, 0.000, 17:15:17.844
128, 137436.80, 157667.03, -92305.21, -76595.11, 6372.71, -31764.60, -34800.05, -36072.25, -47721.96, -61487.75, -41714.93, -42331.92, -66315.63, -97648.66, -13837.56, -26477.63, 0.060, 0.948, -0.270, 17:15:17.845
129, 137451.00, 157683.66, -92302.87, -76598.53, 6360.81, -31755.57, -34807.72, -36070.02, -47721.96, -61487.75, -41714.93, -42331.92, -66315.63, -97648.66, -13837.56, -26477.63, 0.000, 0.000, 0.000, 17:15:17.845
130, 137451.00, 157683.66, -92302.87, -76598.53, 6360.81, -31755.57, -34807.72, -36070.02, -47734.07, -61496.53, -41715.24, -42332.44, -66320.09, -97651.59, -13805.91, -26439.21, 0.000, 0.000, 0.000, 17:15:17.845
131, 137452.00, 157702.34, -92310.29, -76602.64, 6358.33, -31766.74, -34807.59, -36080.14, -47734.07, -61496.53, -41715.24, -42332.44, -66320.09, -97651.59, -13805.91, -26439.21, 0.000, 0.000, 0.000, 17:15:17.845
132, 137452.00, 157702.34, -92310.29, -76602.64, 6358.33, -31766.74, -34807.59, -36080.14, -47725.80, -61495.08, -41715.48, -42334.02, -66321.06, -97653.90, -13826.83, -26482.39, 0.000, 0.000, 0.000, 17:15:17.845
133, 137458.38, 157673.77, -92313.30, -76606.40, 6369.93, -31763.75, -34803.95, -36073.43, -47725.80, -61495.08, -41715.48, -42334.02, -66321.06, -97653.90, -13826.83, -26482.39, 0.000, 0.000, 0.000, 17:15:17.846
134, 137458.38, 157673.77, -92313.30, -76606.40, 6369.93, -31763.75, -34803.95, -36073.43, -47731.66, -61507.02, -41710.90, -42317.04, -66322.97, -97651.44, -13811.79, -26454.56, 0.000, 0.000, 0.000, 17:15:17.846
135, 137470.78, 157710.89, -92306.78, -76602.66, 6386.12, -31753.24, -34794.54, -36059.80, -47731.66, -61507.02, -41710.90, -42317.04, -66322.97, -97651.44, -13811.79, -26454.56, 0.000, 0.000, 0.000, 17:15:17.846
136, 137470.78, 157710.89, -92306.78, -76602.66, 6386.12, -31753.24, -34794.54, -36059.80, -47724.15, -61479.72, -41717.81, -42328.57, -66318.18, -97647.05, -13807.88, -26454.43, 0.000, 0.000, 0.000, 17:15:17.846
137, 137450.59, 157685.77, -92312.70, -76606.58, 6370.11, -31772.67, -34806.98, -36073.08, -47724.15, -61479.72, -41717.81, -42328.57, -66318.18, -97647.05, -13807.88, -26454.43, 0.000, 0.000, 0.000, 17:15:17.846
138, 137450.59, 157685.77, -92312.70, -76606.58, 6370.11, -31772.67, -34806.98, -36073.08, -47719.14, -61489.11, -41730.50, -42320.59, -66311.99, -97638.27, -13827.82, -26488.52, 0.054, 0.948, -0.274, 17:15:17.846
139, 137461.50, 157697.05, -92303.83, -76596.66, 6367.14, -31755.77, -34802.96, -36051.55, -47719.14, -61489.11, -41730.50, -42320.59, -66311.99, -97638.27, -13827.82, -26488.52, 0.000, 0.000, 0.000, 17:15:17.847
140, 137461.50, 157697.05, -92303.83, -76596.66, 6367.14, -31755.77, -34802.96, -36051.55, -47713.73, -61482.41, -41728.65, -42327.83, -66312.51, -97635.59, -13814.18, -26452.19, 0.000, 0.000, 0.000, 17:15:17.847
141, 137460.27, 157717.44, -92305.57, -76596.70, 6358.65, -31773.61, -34801.24, -36073.81, -47713.73, -61482.41, -41728.65, -42327.83, -66312.51, -97635.59, -13814.18, -26452.19, 0.000, 0.000, 0.000, 17:15:17.847
142, 137460.27, 157717.44, -92305.57, -76596.70, 6358.65, -31773.61, -34801.24, -36073.81, -47719.18, -61487.28, -41717.99, -42340.95, -66315.95, -97639.97, -13829.96, -26489.14, 0.000, 0.000, 0.000, 17:15:17.847
143, 137452.98, 157701.31, -92308.08, -76602.55, 6366.85, -31774.72, -34804.19, -36069.99, -47719.18, -61487.28, -41717.99, -42340.95, -66315.95, -97639.97, -13829.96, -26489.14, 0.000, 0.000, 0.000, 17:15:17.847
144, 137452.98, 157701.31, -92308.08, -76602.55, 6366.85, -31774.72, -34804.19, -36069.99, -47728.55, -61501.98, -41702.63, -42339.43, -66321.00, -97641.40, -13805.73, -26468.13, 0.000, 0.000, 0.000, 17:15:17.847
145, 137451.41, 157735.34, -92313.08, -76606.49, 6357.01, -31775.75, -34819.05, -36079.74, -47728.55, -61501.98, -41702.63, -42339.43, -66321.00, -97641.40, -13805.73, -26468.13, 0.000, 0.000, 0.000, 17:15:17.848
146, 137451.41, 157735.34, -92313.08, -76606.49, 6357.01, -31775.75, -34819.05, -36079.74, -47734.68, -61500.04, -41723.26, -42341.02, -66324.28, -97644.17, -13791.45, -26471.51, 0.000, 0.000, 0.000, 17:15:17.848
147, 137429.88, 157714.94, -92326.76, -76613.20, 6352.43, -31796.29, -34820.26, -36087.14, -47734.68, -61500.04, -41723.26, -42341.02, -66324.28, -97644.17, -13791.45, -26471.51, 0.000, 0.000, 0.000, 17:15:17.848
148, 137429.88, 157714.94, -92326.76, -76613.20, 6352.43, -31796.29, -34820.26, -36087.14, -47724.86, -61504.29, -41724.47, -42333.29, -66322.56, -97640.75, -13818.18, -26511.56, 0.054, 0.944, -0.278, 17:15:17.848
149, 137444.97, 157731.92, -92318.85, -76601.39, 6358.04, -31782.06, -34813.46, -36063.89, -47724.86, -61504.29, -41724.47, -42333.29, -66322.56, -97640.75, -13818.18, -26511.56, 0.000, 0.000, 0.000, 17:15:17.848
150, 137444.97, 157731.92, -92318.85, -76601.39, 6358.04, -31782.06, -34813.46, -36063.89, -47722.38, -61510.61, -41722.48, -42340.17, -66335.73, -97650.16, -13787.76, -26470.16, 0.000, 0.000, 0.000, 17:15:17.849
151, 137426.03, 157743.83, -92340.28, -76622.94, 6350.91, -31798.04, -34810.27, -36086.69, -47722.38, -61510.61, -41722.48, -42340.17, -66335.73, -97650.16, -13787.76, -26470.16, 0.000, 0.000, 0.000, 17:15:17.849
152, 137426.03, 157743.83, -92340.28, -76622.94, 6350.91, -31798.04, -34810.27, -36086.69, -47717.31, -61502.05, -41728.67, -42347.39, -66335.69, -97656.29, -13809.24, -26518.33, 0.000, 0.000, 0.000, 17:15:17.849
153, 137435.84, 157701.86, -92314.35, -76609.39, 6366.31, -31778.84, -34782.69, -36072.41, -47717.31, -61502.05, -41728.67, -42347.39, -66335.69, -97656.29, -13809.24, -26518.33, 0.000, 0.000, 0.000, 17:15:17.849
154, 137435.84, 157701.86, -92314.35, -76609.39, 6366.31, -31778.84, -34782.69, -36072.41, -47728.30, -61483.52, -41722.28, -42326.04, -66311.86, -97636.10, -13803.79, -26497.43, 0.000, 0.000, 0.000, 17:15:17.849
155, 137455.11, 157748.30, -92308.16, -76612.41, 6373.24, -31777.54, -34789.10, -36060.83, -47728.30, -61483.52, -41722.28, -42326.04, -66311.86, -97636.10, -13803.79, -26497.43, 0.000, 0.000, 0.000, 17:15:17.849
156, 137455.11, 157748.30, -92308.16, -76612.41, 6373.24, -31777.54, -34789.10, -36060.83, -47734.92, -61471.95, -41732.43, -42328.04, -66317.29, -97642.63, -13763.40, -26472.49, 0.000, 0.000, 0.000, 17:15:17.850
157, 137438.50, 157713.61, -92311.85, -76614.47, 6375.81, -31786.68, -34792.59, -36073.41, -47734.92, -61471.95, -41732.43, -42328.04, -66317.29, -97642.63, -13763.40, -26472.49, 0.000, 0.000, 0.000, 17:15:17.850
158, 137438.50, 157713.61, -92311.85, -76614.47, 6375.81, -31786.68, -34792.59, -36073.41, -47742.81, -61487.55, -41729.86, -42317.55, -66315.95, -97638.23, -13771.54, -26501.88, 0.058, 0.942, -0.274, 17:15:17.850
159, 137444.77, 157682.64, -92300.72, -76604.01, 6388.02, -31770.25, -34773.93, -36053.45, -47742.81, -61487.55, -41729.86, -42317.55, -66315.95, -97638.23, -13771.54, -26501.88, 0.000, 0.000, 0.000, 17:15:17.850
160, 137444.77, 157682.64, -92300.72, -76604.01, 6388.02, -31770.25, -34773.93, -36053.45, -47731.72, -61459.96, -41721.00, -42304.59, -66300.03, -97624.73, -13744.51, -26460.78, 0.000, 0.000, 0.000, 17:15:17.850
161, 137437.39, 157683.92, -92292.92, -76595.83, 6394.77, -31763.10, -34775.25, -36053.96, -47731.72, -61459.96, -41721.00, -42304.59, -66300.03, -97624.73, -13744.51, -26460.78, 0.000, 0.000, 0.000, 17:15:17.850
162, 137437.39, 157683.92, -92292.92, -76595.83, 6394.77, -31763.10, -34775.25, -36053.96, -47723.63, -61460.46, -41723.17, -42304.92, -66298.71, -97622.41, -13740.51, -26484.83, 0.000, 0.000, 0.000, 17:15:17.851
163, 137440.58, 157641.80, -92289.45, -76594.24, 6400.73, -31766.46, -34767.80, -36051.82, -47723.63, -61460.46, -41723.17, -42304.92, -66298.71, -97622.41, -13740.51, -26484.83, 0.000, 0.000, 0.000, 17:15:17.851
164, 137440.58, 157641.80, -92289.45, -76594.24, 6400.73, -31766.46, -34767.80, -36051.82, -47723.70, -61463.79, -41725.92, -42305.97, -66302.24, -97622.38, -13738.39, -26481.27, 0.000, 0.000, 0.000, 17:15:17.851
165, 137447.56, 157662.70, -92300.52, -76597.84, 6398.81, -31770.37, -34767.11, -36049.47, -47723.70, -61463.79, -41725.92, -42305.97, -66302.24, -97622.38, -13738.39, -26481.27, 0.000, 0.000, 0.000, 17:15:17.851
166, 137447.56, 157662.70, -92300.52, -76597.84, 6398.81, -31770.37, -34767.11, -36049.47, -47719.68, -61462.42, -41733.93, -42303.00, -66302.49, -97619.74, -13737.18, -26477.56, 0.000, 0.000, 0.000, 17:15:17.851
167, 137449.30, 157636.61, -92293.59, -76588.45, 6405.18, -31768.60, -34756.74, -36041.88, -47719.68, -61462.42, -41733.93, -42303.00, -66302.49, -97619.74, -13737.18, -26477.56, 0.000, 0.000, 0.000, 17:15:17.852
168, 137449.30, 157636.61, -92293.59, -76588.45, 6405.18, -31768.60, -34756.74, -36041.88, -47722.74, -61445.32, -41723.20, -42308.70, -66297.69, -97615.59, -13741.23, -26496.38, 0.058, 0.944, -0.268, 17:15:17.852
169, 137459.00, 157641.34, -92292.72, -76593.16, 6400.09, -31763.48, -34757.21, -36037.05, -47722.74, -61445.32, -41723.20, -42308.70, -66297.69, -97615.59, -13741.23, -26496.38, 0.000, 0.000, 0.000, 17:15:17.852
170, 137459.00, 157641.34, -92292.72, -76593.16, 6400.09, -31763.48, -34757.21, -36037.05, -47724.46, -61452.99, -41713.27, -42307.07, -66294.98, -97613.20, -13726.36, -26468.42, 0.000, 0.000, 0.000, 17:15:17.853
171, 137452.55, 157664.14, -92300.34, -76607.25, 6402.50, -31766.95, -34756.09, -36035.77, -47724.46, -61452.99, -41713.27, -42307.07, -66294.98, -97613.20, -13726.36, -26468.42, 0.000, 0.000, 0.000, 17:15:17.853
172, 137452.55, 157664.14, -92300.34, -76607.25, 6402.50, -31766.95, -34756.09, -36035.77, -47739.43, -61457.97, -41746.08, -42314.27, -66305.35, -97629.04, -13722.79, -26492.81, 0.000, 0.000, 0.000, 17:15:17.853
173, 137448.94, 157623.45, -92295.38, -76600.97, 6394.10, -31771.30, -34758.62, -36054.70, -47739.43, -61457.97, -41746.08, -42314.27, -66305.35, -97629.04, -13722.79, -26492.81, 0.000, 0.000, 0.000, 17:15:17.853
174, 137448.94, 157623.45, -92295.38, -76600.97, 6394.10, -31771.30, -34758.62, -36054.70, -47736.69, -61458.11, -41725.23, -42304.03, -66299.01, -97620.30, -13719.86, -26486.37, 0.000, 0.000, 0.000, 17:15:17.854
175, 137455.58, 157651.61, -92293.84, -76603.05, 6392.33, -31762.41, -34768.65, -36049.00, -47736.69, -61458.11, -41725.23, -42304.03, -66299.01, -97620.30, -13719.86, -26486.37, 0.000, 0.000, 0.000, 17:15:17.854
176, 137455.58, 157651.61, -92293.84, -76603.05, 6392.33, -31762.41, -34768.65, -36049.00, -47733.71, -61460.03, -41732.83, -42307.22, -66295.59, -97615.67, -13724.08, -26481.32, 0.000, 0.000, 0.000, 17:15:17.854
177, 137451.73, 157629.89, -92289.63, -76592.67, 6398.61, -31764.46, -34762.84, -36041.43, -47733.71, -61460.03, -41732.83, -42307.22, -66295.59, -97615.67, -13724.08, -26481.32, 0.000, 0.000, 0.000, 17:15:17.855
178, 137451.73, 157629.89, -92289.63, -76592.67, 6398.61, -31764.46, -34762.84, -36041.43, -47723.54, -61463.03, -41699.28, -42302.95, -66291.41, -97610.69, -13744.89, -26507.00, 0.056, 0.944, -0.268, 17:15:17.855
179, 137461.92, 157624.03, -92286.33, -76595.54, 6414.06, -31766.66, -34758.41, -36025.00, -47723.54, -61463.03, -41699.28, -42302.95, -66291.41, -97610.69, -13744.89, -26507.00, 0.000, 0.000, 0.000, 17:15:17.855
180, 137461.92, 157624.03, -92286.33, -76595.54, 6414.06, -31766.66, -34758.41, -36025.00, -47717.15, -61431.40, -41703.91, -42292.27, -66280.77, -97601.82, -13736.06, -26487.44, 0.000, 0.000, 0.000, 17:15:17.856
181, 137477.27, 157638.67, -92280.94, -76588.07, 6415.49, -31765.18, -34763.45, -36023.72, -47717.15, -61431.40, -41703.91, -42292.27, -66280.77, -97601.82, -13736.06, -26487.44, 0.000, 0.000, 0.000, 17:15:17.856
182, 137477.27, 157638.67, -92280.94, -76588.07, 6415.49, -31765.18, -34763.45, -36023.72, -47721.58, -61437.81, -41732.23, -42308.27, -66282.24, -97602.30, -13739.42, -26502.04, 0.000, 0.000, 0.000, 17:15:17.857
183, 137467.78, 157614.80, -92289.21, -76594.69, 6412.98, -31773.34, -34762.59, -36019.97, -47721.58, -61437.81, -41732.23, -42308.27, -66282.24, -97602.30, -13739.42, -26502.04, 0.000, 0.000, 0.000, 17:15:17.857
184, 137467.78, 157614.80, -92289.21, -76594.69, 6412.98, -31773.34, -34762.59, -36019.97, -47732.82, -61462.15, -41738.46, -42317.93, -66300.62, -97615.23, -13736.46, -26480.47, 0.000, 0.000, 0.000, 17:15:17.857
185, 137456.61, 157640.59, -92294.44, -76597.99, 6412.29, -31768.51, -34754.77, -36016.15, -47732.82, -61462.15, -41738.46, -42317.93, -66300.62, -97615.23, -13736.46, -26480.47, 0.000, 0.000, 0.000, 17:15:17.858
186, 137456.61, 157640.59, -92294.44, -76597.99, 6412.29, -31768.51, -34754.77, -36016.15, -47735.30, -61456.07, -41733.43, -42323.09, -66296.01, -97614.16, -13733.22, -26477.67, 0.000, 0.000, 0.000, 17:15:17.858
187, 137439.69, 157623.42, -92296.09, -76603.38, 6423.60, -31778.97, -34750.95, -36024.55, -47735.30, -61456.07, -41733.43, -42323.09, -66296.01, -97614.16, -13733.22, -26477.67, 0.000, 0.000, 0.000, 17:15:17.858
188, 137439.69, 157623.42, -92296.09, -76603.38, 6423.60, -31778.97, -34750.95, -36024.55, -47731.70, -61456.05, -41714.07, -42327.99, -66294.34, -97610.76, -13738.88, -26508.92, 0.058, 0.940, -0.264, 17:15:17.858
189, 137441.91, 157645.70, -92287.53, -76599.23, 6444.12, -31769.88, -34770.39, -36029.54, -47731.70, -61456.05, -41714.07, -42327.99, -66294.34, -97610.76, -13738.88, -26508.92, 0.000, 0.000, 0.000, 17:15:17.859
190, 137441.91, 157645.70, -92287.53, -76599.23, 6444.12, -31769.88, -34770.39, -36029.54, -47729.94, -61458.38, -41718.23, -42314.53, -66296.14, -97610.16, -13706.09, -26482.19, 0.000, 0.000, 0.000, 17:15:17.859
191, 137427.03, 157685.38, -92293.28, -76598.17, 6444.59, -31782.37, -34764.83, -36031.77, -47729.94, -61458.38, -41718.23, -42314.53, -66296.14, -97610.16, -13706.09, -26482.19, 0.000, 0.000, 0.000, 17:15:17.859
192, 137427.03, 157685.38, -92293.28, -76598.17, 6444.59, -31782.37, -34764.83, -36031.77, -47726.07, -61453.14, -41714.01, -42331.09, -66293.13, -97610.22, -13725.80, -26528.17, 0.000, 0.000, 0.000, 17:15:17.860
193, 137429.94, 157633.06, -92286.41, -76598.17, 6455.23, -31771.26, -34756.07, -36013.62, -47726.07, -61453.14, -41714.01, -42331.09, -66293.13, -97610.22, -13725.80, -26528.17, 0.000, 0.000, 0.000, 17:15:17.860
194, 137429.94, 157633.06, -92286.41, -76598.17, 6455.23, -31771.26, -34756.07, -36013.62, -47731.79, -61447.02, -41728.56, -42322.09, -66291.30, -97609.44, -13715.83, -26507.18, 0.000, 0.000, 0.000, 17:15:17.860
195, 137445.05, 157670.88, -92290.82, -76606.00, 6459.05, -31758.97, -34760.47, -36024.35, -47731.79, -61447.02, -41728.56, -42322.09, -66291.30, -97609.44, -13715.83, -26507.18, 0.000, 0.000, 0.000, 17:15:17.860
196, 137445.05, 157670.88, -92290.82, -76606.00, 6459.05, -31758.97, -34760.47, -36024.35, -47738.61, -61467.70, -41740.54, -42322.69, -66299.98, -97619.54, -13681.82, -26477.23, 0.000, 0.000, 0.000, 17:15:17.861
197, 137428.83, 157629.55, -92293.59, -76605.08, 6471.86, -31765.85, -34758.30, -36026.21, -47738.61, -61467.70, -41740.54, -42322.69, -66299.98, -97619.54, -13681.82, -26477.23, 0.000, 0.000, 0.000, 17:15:17.861
198, 137428.83, 157629.55, -92293.59, -76605.08, 6471.86, -31765.85, -34758.30, -36026.21, -47727.34, -61447.65, -41720.45, -42317.80, -66288.56, -97609.23, -13717.38, -26512.54, 0.070, 0.938, -0.258, 17:15:17.861
199, 137446.66, 157618.06, -92280.20, -76600.56, 6481.80, -31751.21, -34747.84, -36007.00, -47727.34, -61447.65, -41720.45, -42317.80, -66288.56, -97609.23, -13717.38, -26512.54, 0.000, 0.000, 0.000, 17:15:17.862
200, 137446.66, 157618.06, -92280.20, -76600.56, 6481.80, -31751.21, -34747.84, -36007.00, -47731.43, -61449.13, -41725.12, -42312.01, -66294.04, -97613.15, -13702.02, -26481.88, 0.000, 0.000, 0.000, 17:15:17.862
201, 137435.34, 157632.05, -92292.79, -76611.45, 6476.75, -31771.15, -34760.65, -36013.18, -47731.43, -61449.13, -41725.12, -42312.01, -66294.04, -97613.15, -13702.02, -26481.88, 0.000, 0.000, 0.000, 17:15:17.862
202, 137435.34, 157632.05, -92292.79, -76611.45, 6476.75, -31771.15, -34760.65, -36013.18, -47733.64, -61454.98, -41727.64, -42328.68, -66297.87, -97616.79, -13710.18, -26514.76, 0.000, 0.000, 0.000, 17:15:17.862
203, 137425.97, 157595.34, -92293.93, -76613.40, 6482.05, -31769.70, -34762.41, -36010.71, -47733.64, -61454.98, -41727.64, -42328.68, -66297.87, -97616.79, -13710.18, -26514.76, 0.000, 0.000, 0.000, 17:15:17.863
204, 137425.97, 157595.34, -92293.93, -76613.40, 6482.05, -31769.70, -34762.41, -36010.71, -47732.75, -61449.66, -41717.32, -42317.13, -66290.55, -97609.88, -13724.69, -26511.78, 0.000, 0.000, 0.000, 17:15:17.863
205, 137435.78, 157615.88, -92285.19, -76608.68, 6490.41, -31753.31, -34740.62, -35999.45, -47732.75, -61449.66, -41717.32, -42317.13, -66290.55, -97609.88, -13724.69, -26511.78, 0.000, 0.000, 0.000, 17:15:17.863
206, 137435.78, 157615.88, -92285.19, -76608.68, 6490.41, -31753.31, -34740.62, -35999.45, -47739.84, -61456.79, -41731.31, -42326.02, -66299.63, -97616.55, -13707.72, -26481.29, 0.000, 0.000, 0.000, 17:15:17.864
207, 137403.59, 157602.88, -92299.34, -76621.35, 6468.62, -31771.51, -34762.41, -36020.13, -47739.84, -61456.79, -41731.31, -42326.02, -66299.63, -97616.55, -13707.72, -26481.29, 0.000, 0.000, 0.000, 17:15:17.864
208, 137403.59, 157602.88, -92299.34, -76621.35, 6468.62, -31771.51, -34762.41, -36020.13, -47737.00, -61454.02, -41719.46, -42327.56, -66300.19, -97615.85, -13729.07, -26520.90, 0.066, 0.938, -0.256, 17:15:17.864
209, 137399.86, 157586.08, -92288.00, -76613.84, 6489.76, -31764.87, -34757.54, -35997.84, -47737.00, -61454.02, -41719.46, -42327.56, -66300.19, -97615.85, -13729.07, -26520.90, 0.000, 0.000, 0.000, 17:15:17.865
210, 137399.86, 157586.08, -92288.00, -76613.84, 6489.76, -31764.87, -34757.54, -35997.84, -47732.11, -61451.40, -41730.13, -42315.36, -66292.41, -97606.20, -13717.29, -26489.95, 0.000, 0.000, 0.000, 17:15:17.865
211, 137384.02, 157585.63, -92281.07, -76606.63, 6512.43, -31763.62, -34748.63, -35994.96, -47732.11, -61451.40, -41730.13, -42315.36, -66292.41, -97606.20, -13717.29, -26489.95, 0.000, 0.000, 0.000, 17:15:17.865
212, 137384.02, 157585.63, -92281.07, -76606.63, 6512.43, -31763.62, -34748.63, -35994.96, -47724.79, -61447.85, -41710.75, -42325.08, -66284.66, -97600.21, -13744.36, -26525.22, 0.000, 0.000, 0.000, 17:15:17.865
213, 137354.48, 157555.19, -92281.66, -76603.18, 6516.56, -31770.03, -34747.06, -36000.52, -47724.79, -61447.85, -41710.75, -42325.08, -66284.66, -97600.21, -13744.36, -26525.22, 0.000, 0.000, 0.000, 17:15:17.866
214, 137354.48, 157555.19, -92281.66, -76603.18, 6516.56, -31770.03, -34747.06, -36000.52, -47727.52, -61447.40, -41709.80, -42331.63, -66292.77, -97608.05, -13745.45, -26511.29, 0.000, 0.000, 0.000, 17:15:17.866
215, 137326.36, 157598.19, -92297.44, -76621.42, 6503.31, -31774.46, -34772.05, -36007.50, -47727.52, -61447.40, -41709.80, -42331.63, -66292.77, -97608.05, -13745.45, -26511.29, 0.000, 0.000, 0.000, 17:15:17.867
216, 137326.36, 157598.19, -92297.44, -76621.42, 6503.31, -31774.46, -34772.05, -36007.50, -47744.33, -61458.45, -41730.84, -42337.73, -66305.53, -97622.27, -13715.03, -26487.91, 0.000, 0.000, 0.000, 17:15:17.867
217, 137289.38, 157582.14, -92304.14, -76621.82, 6505.05, -31783.20, -34773.14, -36016.17, -47744.33, -61458.45, -41730.84, -42337.73, -66305.53, -97622.27, -13715.03, -26487.91, 0.000, 0.000, 0.000, 17:15:17.867
218, 137289.38, 157582.14, -92304.14, -76621.82, 6505.05, -31783.20, -34773.14, -36016.17, -47739.86, -61441.86, -41732.65, -42340.98, -66295.98, -97615.43, -13742.68, -26533.96, 0.058, 0.944, -0.256, 17:15:17.867
219, 137284.66, 157565.89, -92283.69, -76606.89, 6533.03, -31765.52, -34752.94, -35988.18, -47739.86, -61441.86, -41732.65, -42340.98, -66295.98, -97615.43, -13742.68, -26533.96, 0.000, 0.000, 0.000, 17:15:17.867
220, 137284.66, 157565.89, -92283.69, -76606.89, 6533.03, -31765.52, -34752.94, -35988.18, -47731.99, -61437.81, -41712.27, -42325.13, -66286.15, -97604.52, -13739.59, -26504.92, 0.000, 0.000, 0.000, 17:15:17.868
221, 137265.98, 157575.17, -92285.14, -76606.58, 6543.07, -31778.86, -34754.30, -35999.85, -47731.99, -61437.81, -41712.27, -42325.13, -66286.15, -97604.52, -13739.59, -26504.92, 0.000, 0.000, 0.000, 17:15:17.868
222, 137265.98, 157575.17, -92285.14, -76606.58, 6543.07, -31778.86, -34754.30, -35999.85, -47736.13, -61443.94, -41695.03, -42331.45, -66291.94, -97612.84, -13756.83, -26536.26, 0.000, 0.000, 0.000, 17:15:17.868
223, 137234.72, 157520.34, -92292.09, -76606.35, 6536.79, -31782.30, -34750.05, -36001.80, -47736.13, -61443.94, -41695.03, -42331.45, -66291.94, -97612.84, -13756.83, -26536.26, 0.000, 0.000, 0.000, 17:15:17.868
224, 137234.72, 157520.34, -92292.09, -76606.35, 6536.79, -31782.30, -34750.05, -36001.80, -47746.54, -61469.46, -41714.37, -42338.76, -66305.48, -97624.23, -13747.24, -26515.27, 0.000, 0.000, 0.000, 17:15:17.868
225, 137224.70, 157553.48, -92297.79, -76610.24, 6536.79, -31776.65, -34754.41, -35986.78, -47746.54, -61469.46, -41714.37, -42338.76, -66305.48, -97624.23, -13747.24, -26515.27, 0.000, 0.000, 0.000, 17:15:17.869
226, 137224.70, 157553.48, -92297.79, -76610.24, 6536.79, -31776.65, -34754.41, -35986.78, -47744.55, -61453.26, -41723.48, -42340.39, -66302.96, -97624.82, -13731.46, -26501.68, 0.000, 0.000, 0.000, 17:15:17.869
227, 137206.16, 157519.95, -92298.20, -76603.09, 6541.98, -31788.74, -34760.05, -36015.95, -47744.55, -61453.26, -41723.48, -42340.39, -66302.96, -97624.82, -13731.46, -26501.68, 0.000, 0.000, 0.000, 17:15:17.869
228, 137206.16, 157519.95, -92298.20, -76603.09, 6541.98, -31788.74, -34760.05, -36015.95, -47745.20, -61451.65, -41708.73, -42335.59, -66301.93, -97626.76, -13761.63, -26540.13, 0.060, 0.944, -0.252, 17:15:17.869
229, 137211.41, 157533.92, -92295.89, -76600.16, 6542.60, -31783.15, -34748.56, -36006.09, -47745.20, -61451.65, -41708.73, -42335.59, -66301.93, -97626.76, -13761.63, -26540.13, 0.000, 0.000, 0.000, 17:15:17.869
230, 137211.41, 157533.92, -92295.89, -76600.16, 6542.60, -31783.15, -34748.56, -36006.09, -47754.55, -61457.95, -41719.17, -42351.70, -66312.70, -97636.64, -13728.58, -26504.23, 0.000, 0.000, 0.000, 17:15:17.870
231, 137199.83, 157556.38, -92298.71, -76595.85, 6543.12, -31782.84, -34751.75, -36012.82, -47754.55, -61457.95, -41719.17, -42351.70, -66312.70, -97636.64, -13728.58, -26504.23, 0.000, 0.000, 0.000, 17:15:17.870
232, 137199.83, 157556.38, -92298.71, -76595.85, 6543.12, -31782.84, -34751.75, -36012.82, -47737.47, -61450.73, -41715.04, -42348.86, -66303.68, -97628.41, -13758.24, -26551.41, 0.000, 0.000, 0.000, 17:15:17.870
233, 137195.31, 157534.48, -92296.74, -76592.38, 6536.28, -31783.84, -34742.19, -36008.84, -47737.47, -61450.73, -41715.04, -42348.86, -66303.68, -97628.41, -13758.24, -26551.41, 0.000, 0.000, 0.000, 17:15:17.871
234, 137195.31, 157534.48, -92296.74, -76592.38, 6536.28, -31783.84, -34742.19, -36008.84, -47737.11, -61450.49, -41705.45, -42342.32, -66305.62, -97630.59, -13749.72, -26542.70, 0.000, 0.000, 0.000, 17:15:17.871
235, 137204.09, 157571.80, -92287.89, -76579.96, 6556.55, -31777.09, -34752.16, -36006.80, -47737.11, -61450.49, -41705.45, -42342.32, -66305.62, -97630.59, -13749.72, -26542.70, 0.000, 0.000, 0.000, 17:15:17.871
236, 137204.09, 157571.80, -92287.89, -76579.96, 6556.55, -31777.09, -34752.16, -36006.80, -47738.96, -61454.02, -41701.60, -42336.37, -66302.91, -97629.04, -13733.47, -26534.11, 0.000, 0.000, 0.000, 17:15:17.872
237, 137181.50, 157543.58, -92290.06, -76581.01, 6567.77, -31792.74, -34743.48, -36013.60, -47738.96, -61454.02, -41701.60, -42336.37, -66302.91, -97629.04, -13733.47, -26534.11, 0.000, 0.000, 0.000, 17:15:17.872
238, 137181.50, 157543.58, -92290.06, -76581.01, 6567.77, -31792.74, -34743.48, -36013.60, -47741.40, -61457.86, -41710.01, -42351.91, -66308.68, -97635.55, -13769.68, -26577.50, 0.062, 0.944, -0.254, 17:15:17.872
239, 137168.98, 157557.19, -92301.50, -76589.45, 6579.30, -31784.89, -34759.62, -36005.60, -47741.40, -61457.86, -41710.01, -42351.91, -66308.68, -97635.55, -13769.68, -26577.50, 0.000, 0.000, 0.000, 17:15:17.872
240, 137168.98, 157557.19, -92301.50, -76589.45, 6579.30, -31784.89, -34759.62, -36005.60, -47751.66, -61463.81, -41709.92, -42361.72, -66321.70, -97643.95, -13725.96, -26519.63, 0.000, 0.000, 0.000, 17:15:17.873
241, 137161.08, 157576.06, -92304.19, -76586.26, 6581.18, -31788.98, -34750.39, -36007.79, -47751.66, -61463.81, -41709.92, -42361.72, -66321.70, -97643.95, -13725.96, -26519.63, 0.000, 0.000, 0.000, 17:15:17.873
242, 137161.08, 157576.06, -92304.19, -76586.26, 6581.18, -31788.98, -34750.39, -36007.79, -47741.65, -61458.31, -41704.53, -42347.64, -66312.37, -97637.49, -13748.58, -26561.81, 0.000, 0.000, 0.000, 17:15:17.873
243, 137163.78, 157555.31, -92300.34, -76577.03, 6589.96, -31785.72, -34753.30, -36021.13, -47741.65, -61458.31, -41704.53, -42347.64, -66312.37, -97637.49, -13748.58, -26561.81, 0.000, 0.000, 0.000, 17:15:18.330
244, 137163.78, 157555.31, -92300.34, -76577.03, 6589.96, -31785.72, -34753.30, -36021.13, -47743.01, -61464.84, -41711.17, -42362.50, -66314.74, -97636.57, -13736.00, -26544.04, 0.000, 0.000, 0.000, 17:15:18.330
245, 137162.33, 157590.19, -92306.60, -76582.15, 6589.20, -31794.93, -34765.37, -36017.33, -47743.01, -61464.84, -41711.17, -42362.50, -66314.74, -97636.57, -13736.00, -26544.04, 0.000, 0.000, 0.000, 17:15:18.330
246, 137162.33, 157590.19, -92306.60, -76582.15, 6589.20, -31794.93, -34765.37, -36017.33, -47737.91, -61454.69, -41693.64, -42362.37, -66308.84, -97634.88, -13727.99, -26543.32, 0.000, 0.000, 0.000, 17:15:18.331
247, 137146.95, 157549.81, -92289.68, -76569.98, 6605.70, -31792.23, -34745.81, -36005.46, -47737.91, -61454.69, -41693.64, -42362.37, -66308.84, -97634.88, -13727.99, -26543.32, 0.000, 0.000, 0.000, 17:15:18.331
248, 137146.95, 157549.81, -92289.68, -76569.98, 6605.70, -31792.23, -34745.81, -36005.46, -47727.28, -61452.21, -41684.46, -42348.75, -66300.55, -97629.27, -13752.22, -26585.23, 0.070, 0.940, -0.260, 17:15:18.331
249, 137135.22, 157568.69, -92290.06, -76573.61, 6609.37, -31781.16, -34752.83, -36003.61, -47727.28, -61452.21, -41684.46, -42348.75, -66300.55, -97629.27, -13752.22, -26585.23, 0.000, 0.000, 0.000, 17:15:18.332
250, 137135.22, 157568.69, -92290.06, -76573.61, 6609.37, -31781.16, -34752.83, -36003.61, -47733.76, -61464.61, -41698.77, -42350.63, -66314.52, -97640.22, -13701.80, -26525.66, 0.000, 0.000, 0.000, 17:15:18.332
251, 137106.78, 157609.14, -92305.77, -76588.92, 6585.14, -31800.03, -34768.41, -36010.85, -47733.76, -61464.61, -41698.77, -42350.63, -66314.52, -97640.22, -13701.80, -26525.66, 0.000, 0.000, 0.000, 17:15:18.333
252, 137106.78, 157609.14, -92305.77, -76588.92, 6585.14, -31800.03, -34768.41, -36010.85, -47737.94, -61467.56, -41707.66, -42375.57, -66321.31, -97646.52, -13693.37, -26551.64, 0.000, 0.000, 0.000, 17:15:18.334
253, 137099.22, 157583.03, -92301.21, -76578.66, 6590.68, -31798.62, -34754.30, -36005.57, -47737.94, -61467.56, -41707.66, -42375.57, -66321.31, -97646.52, -13693.37, -26551.64, 0.000, 0.000, 0.000, 17:15:18.334
254, 137099.22, 157583.03, -92301.21, -76578.66, 6590.68, -31798.62, -34754.30, -36005.57, -47743.86, -61459.90, -41710.50, -42370.59, -66320.28, -97644.89, -13676.65, -26543.12, 0.000, 0.000, 0.000, 17:15:18.335
255, 137090.03, 157616.16, -92301.59, -76585.37, 6593.38, -31803.42, -34761.68, -36017.24, -47743.86, -61459.90, -41710.50, -42370.59, -66320.28, -97644.89, -13676.65, -26543.12, 0.000, 0.000, 0.000, 17:15:18.335
0, 137090.03, 157616.16, -92301.59, -76585.37, 6593.38, -31803.42, -34761.68, -36017.24, -47748.33, -61461.95, -41694.50, -42367.37, -66321.45, -97648.06, -13638.59, -26529.98, 0.000, 0.000, 0.000, 17:15:18.335
1, 137066.14, 157581.98, -92302.53, -76586.77, 6590.61, -31815.07, -34756.31, -36025.82, -47748.33, -61461.95, -41694.50, -42367.37, -66321.45, -97648.06, -13638.59, -26529.98, 0.000, 0.000, 0.000, 17:15:18.336
2, 137066.14, 157581.98, -92302.53, -76586.77, 6590.61, -31815.07, -34756.31, -36025.82, -47734.41, -61452.52, -41694.36, -42365.90, -66313.47, -97641.96, -13664.13, -26579.22, 0.070, 0.940, -0.266, 17:15:18.336
3, 137073.77, 157576.31, -92298.20, -76583.22, 6611.15, -31803.36, -34756.09, -36011.59, -47734.41, -61452.52, -41694.36, -42365.90, -66313.47, -97641.96, -13664.13, -26579.22, 0.000, 0.000, 0.000, 17:15:18.337
4, 137073.77, 157576.31, -92298.20, -76583.22, 6611.15, -31803.36, -34756.09, -36011.59, -47739.91, -61466.82, -41694.29, -42383.42, -66319.52, -97644.58, -13647.55, -26544.08, 0.000, 0.000, 0.000, 17:15:18.337
5, 137065.86, 157593.94, -92299.45, -76577.66, 6618.33, -31808.97, -34775.31, -36013.87, -47739.91, -61466.82, -41694.29, -42383.42, -66319.52, -97644.58, -13647.55, -26544.08, 0.000, 0.000, 0.000, 17:15:18.337
6, 137065.86, 157593.94, -92299.45, -76577.66, 6618.33, -31808.97, -34775.31, -36013.87, -47732.77, -61467.41, -41700.96, -42366.34, -66316.48, -97639.34, -13660.33, -26569.83, 0.000, 0.000, 0.000, 17:15:18.338
7, 137054.83, 157571.59, -92308.12, -76579.69, 6620.16, -31817.80, -34780.16, -36013.22, -47732.77, -61467.41, -41700.96, -42366.34, -66316.48, -97639.34, -13660.33, -26569.83, 0.000, 0.000, 0.000, 17:15:18.338
8, 137054.83, 157571.59, -92308.12, -76579.69, 6620.16, -31817.80, -34780.16, -36013.22, -47739.55, -61482.38, -41695.08, -42368.33, -66328.62, -97648.40, -13642.48, -26560.96, 0.000, 0.000, 0.000, 17:15:18.338
9, 137058.97, 157592.22, -92310.53, -76584.00, 6629.10, -31810.00, -34784.32, -36007.72, -47739.55, -61482.38, -41695.08, -42368.33, -66328.62, -97648.40, -13642.48, -26560.96, 0.000, 0.000, 0.000, 17:15:18.338
10, 137058.97, 157592.22, -92310.53, -76584.00, 6629.10, -31810.00, -34784.32, -36007.72, -47741.65, -61470.89, -41682.87, -42382.48, -66326.95, -97647.57, -13625.00, -26554.70, 0.000, 0.000, 0.000, 17:15:18.339
11, 137051.80, 157565.80, -92303.65, -76580.80, 6628.48, -31808.95, -34773.46, -35993.41, -47741.65, -61470.89, -41682.87, -42382.48, -66326.95, -97647.57, -13625.00, -26554.70, 0.000, 0.000, 0.000, 17:15:18.339
12, 137051.80, 157565.80, -92303.65, -76580.80, 6628.48, -31808.95, -34773.46, -35993.41, -47742.23, -61460.03, -41688.13, -42376.63, -66322.74, -97646.03, -13625.87, -26578.93, 0.072, 0.936, -0.268, 17:15:18.343
13, 137066.02, 157569.20, -92295.20, -76580.20, 6632.46, -31800.88, -34764.32, -35995.14, -47742.23, -61460.03, -41688.13, -42376.63, -66322.74, -97646.03, -13625.87, -26578.93, 0.000, 0.000, 0.000, 17:15:18.343
14, 137066.02, 157569.20, -92295.20, -76580.20, 6632.46, -31800.88, -34764.32, -35995.14, -47747.73, -61467.30, -41695.01, -42376.29, -66326.07, -97649.72, -13590.35, -26535.88, 0.000, 0.000, 0.000, 17:15:18.344
15, 137047.55, 157602.69, -92312.97, -76593.99, 6634.22, -31823.92, -34785.93, -36008.55, -47747.73, -61467.30, -41695.01, -42376.29, -66326.07, -97649.72, -13590.35, -26535.88, 0.000, 0.000, 0.000, 17:15:18.345
16, 137047.55, 157602.69, -92312.97, -76593.99, 6634.22, -31823.92, -34785.93, -36008.55, -47761.77, -61489.25, -41709.23, -42399.65, -66339.55, -97665.97, -13583.15, -26565.29, 0.000, 0.000, 0.000, 17:15:18.345
17, 137039.39, 157565.63, -92315.90, -76592.72, 6641.62, -31835.61, -34788.86, -36012.26, -47761.77, -61489.25, -41709.23, -42399.65, -66339.55, -97665.97, -13583.15, -26565.29, 0.000, 0.000, 0.000, 17:15:18.345
18, 137039.39, 157565.63, -92315.90, -76592.72, 6641.62, -31835.61, -34788.86, -36012.26, -47754.32, -61494.16, -41708.60, -42398.62, -66333.36, -97657.98, -13582.22, -26565.61, 0.000, 0.000, 0.000, 17:15:18.345
19, 137057.78, 157600.69, -92312.26, -76585.81, 6644.35, -31817.62, -34780.65, -36005.08, -47754.32, -61494.16, -41708.60, -42398.62, -66333.36, -97657.98, -13582.22, -26565.61, 0.000, 0.000, 0.000, 17:15:18.346
20, 137057.78, 157600.69, -92312.26, -76585.81, 6644.35, -31817.62, -34780.65, -36005.08, -47752.91, -61481.85, -41709.09, -42392.96, -66333.11, -97655.93, -13567.35, -26544.95, 0.000, 0.000, 0.000, 17:15:18.346
21, 137045.98, 157585.36, -92312.55, -76584.70, 6626.89, -31822.83, -34781.79, -36009.22, -47752.91, -61481.85, -41709.09, -42392.96, -66333.11, -97655.93, -13567.35, -26544.95, 0.000, 0.000, 0.000, 17:15:18.346
22, 137045.98, 157585.36, -92312.55, -76584.70, 6626.89, -31822.83, -34781.79, -36009.22, -47750.61, -61481.02, -41702.88, -42383.73, -66328.76, -97653.36, -13584.92, -26589.48, 0.062, 0.938, -0.270, 17:15:18.346
23, 137051.34, 157596.83, -92317.77, -76594.59, 6635.12, -31821.82, -34787.83, -36003.88, -47750.61, -61481.02, -41702.88, -42383.73, -66328.76, -97653.36, -13584.92, -26589.48, 0.000, 0.000, 0.000, 17:15:18.346
24, 137051.34, 157596.83, -92317.77, -76594.59, 6635.12, -31821.82, -34787.83, -36003.88, -47766.66, -61493.76, -41696.13, -42394.60, -66340.94, -97668.23, -13547.50, -26550.47, 0.000, 0.000, 0.000, 17:15:18.346
25, 137035.48, 157611.28, -92321.27, -76608.23, 6635.29, -31835.16, -34807.95, -36014.54, -47766.66, -61493.76, -41696.13, -42394.60, -66340.94, -97668.23, -13547.50, -26550.47, 0.000, 0.000, 0.000, 17:15:18.347
26, 137035.48, 157611.28, -92321.27, -76608.23, 6635.29, -31835.16, -34807.95, -36014.54, -47762.41, -61488.15, -41717.79, -42392.99, -66337.47, -97668.42, -13556.78, -26586.35, 0.000, 0.000, 0.000, 17:15:18.347
27, 137034.56, 157589.67, -92319.59, -76602.27, 6644.79, -31833.04, -34800.66, -36016.86, -47762.41, -61488.15, -41717.79, -42392.99, -66337.47, -97668.42, -13556.78, -26586.35, 0.000, 0.000, 0.000, 17:15:18.347
28, 137034.56, 157589.67, -92319.59, -76602.27, 6644.79, -31833.04, -34800.66, -36016.86, -47758.88, -61485.91, -41716.98, -42400.81, -66329.56, -97655.59, -13555.82, -26578.95, 0.000, 0.000, 0.000, 17:15:18.347
29, 137053.00, 157623.98, -92311.83, -76596.79, 6653.62, -31811.74, -34786.55, -36001.33, -47758.88, -61485.91, -41716.98, -42400.81, -66329.56, -97655.59, -13555.82, -26578.95, 0.000, 0.000, 0.000, 17:15:18.347
30, 137053.00, 157623.98, -92311.83, -76596.79, 6653.62, -31811.74, -34786.55, -36001.33, -47761.99, -61477.44, -41718.99, -42405.93, -66331.98, -97656.09, -13536.91, -26553.83, 0.000, 0.000, 0.000, 17:15:18.347
31, 137036.11, 157612.52, -92320.32, -76599.07, 6650.27, -31831.16, -34804.01, -36025.87, -47761.99, -61477.44, -41718.99, -42405.93, -66331.98, -97656.09, -13536.91, -26553.83, 0.000, 0.000, 0.000, 17:15:18.348
32, 137036.11, 157612.52, -92320.32, -76599.07, 6650.27, -31831.16, -34804.01, -36025.87, -47762.17, -61480.66, -41709.54, -42405.41, -66330.77, -97656.40, -13559.10, -26598.62, 0.064, 0.938, -0.272, 17:15:18.348
33, 137033.13, 157621.25, -92316.63, -76599.60, 6656.53, -31821.55, -34807.34, -36020.57, -47762.17, -61480.66, -41709.54, -42405.41, -66330.77, -97656.40, -13559.10, -26598.62, 0.000, 0.000, 0.000, 17:15:18.348
34, 137033.13, 157621.25, -92316.63, -76599.60, 6656.53, -31821.55, -34807.34, -36020.57, -47762.12, -61486.41, -41715.84, -42403.74, -66332.69, -97658.63, -13532.44, -26560.42, 0.000, 0.000, 0.000, 17:15:18.348
35, 137022.89, 157637.27, -92312.52, -76593.88, 6656.06, -31828.86, -34795.96, -36016.23, -47762.12, -61486.41, -41715.84, -42403.74, -66332.69, -97658.63, -13532.44, -26560.42, 0.000, 0.000, 0.000, 17:15:18.348
36, 137022.89, 157637.27, -92312.52, -76593.88, 6656.06, -31828.86, -34795.96, -36016.23, -47750.97, -61474.47, -41698.09, -42396.27, -66319.12, -97648.42, -13556.89, -26597.37, 0.000, 0.000, 0.000, 17:15:18.348
37, 137024.89, 157612.34, -92306.15, -76594.40, 6662.27, -31821.78, -34788.68, -36013.66, -47750.97, -61474.47, -41698.09, -42396.27, -66319.12, -97648.42, -13556.89, -26597.37, 0.000, 0.000, 0.000, 17:15:18.349
38, 137024.89, 157612.34, -92306.15, -76594.40, 6662.27, -31821.78, -34788.68, -36013.66, -47759.71, -61476.28, -41703.95, -42389.77, -66326.85, -97654.90, -13553.81, -26594.60, 0.000, 0.000, 0.000, 17:15:18.349
39, 137031.00, 157646.95, -92309.55, -76595.34, 6673.16, -31813.17, -34796.23, -36004.75, -47759.71, -61476.28, -41703.95, -42389.77, -66326.85, -97654.90, -13553.81, -26594.60, 0.000, 0.000, 0.000, 17:15:18.349
40, 137031.00, 157646.95, -92309.55, -76595.34, 6673.16, -31813.17, -34796.23, -36004.75, -47761.27, -61482.34, -41699.10, -42403.23, -66330.81, -97657.98, -13534.83, -26581.23, 0.000, 0.000, 0.000, 17:15:18.349
41, 137019.97, 157633.80, -92324.95, -76605.28, 6676.09, -31825.71, -34806.79, -36016.97, -47761.27, -61482.34, -41699.10, -42403.23, -66330.81, -97657.98, -13534.83, -26581.23, 0.000, 0.000, 0.000, 17:15:18.349
42, 137019.97, 157633.80, -92324.95, -76605.28, 6676.09, -31825.71, -34806.79, -36016.97, -47762.91, -61489.49, -41702.86, -42401.55, -66333.00, -97662.13, -13544.55, -26614.53, 0.058, 0.938, -0.276, 17:15:18.350
43, 137045.84, 157632.81, -92310.55, -76597.23, 6693.59, -31815.88, -34797.57, -36018.49, -47762.91, -61489.49, -41702.86, -42401.55, -66333.00, -97662.13, -13544.55, -26614.53, 0.000, 0.000, 0.000, 17:15:18.350
44, 137045.84, 157632.81, -92310.55, -76597.23, 6693.59, -31815.88, -34797.57, -36018.49, -47765.52, -61482.81, -41702.65, -42398.53, -66329.36, -97657.25, -13512.70, -26571.71, 0.000, 0.000, 0.000, 17:15:18.350
45, 137053.88, 157669.41, -92321.44, -76605.33, 6684.24, -31832.68, -34795.29, -36023.19, -47765.52, -61482.81, -41702.65, -42398.53, -66329.36, -97657.25, -13512.70, -26571.71, 0.000, 0.000, 0.000, 17:15:18.350
46, 137053.88, 157669.41, -92321.44, -76605.33, 6684.24, -31832.68, -34795.29, -36023.19, -47768.89, -61482.70, -41711.04, -42403.80, -66333.90, -97663.09, -13510.33, -26601.23, 0.000, 0.000, 0.000, 17:15:18.350
47, 137064.00, 157627.88, -92319.16, -76600.21, 6688.74, -31827.86, -34797.26, -36019.79, -47768.89, -61482.70, -41711.04, -42403.80, -66333.90, -97663.09, -13510.33, -26601.23, 0.000, 0.000, 0.000, 17:15:18.351
48, 137064.00, 157627.88, -92319.16, -76600.21, 6688.74, -31827.86, -34797.26, -36019.79, -47771.06, -61484.24, -41704.71, -42401.82, -66336.13, -97663.62, -13504.41, -26585.97, 0.000, 0.000, 0.000, 17:15:18.351
49, 137086.75, 157655.66, -92322.72, -76600.66, 6685.23, -31815.79, -34806.20, -36017.69, -47771.06, -61484.24, -41704.71, -42401.82, -66336.13, -97663.62, -13504.41, -26585.97, 0.000, 0.000, 0.000, 17:15:18.351
50, 137086.75, 157655.66, -92322.72, -76600.66, 6685.23, -31815.79, -34806.20, -36017.69, -47768.85, -61480.10, -41717.25, -42402.80, -66331.80, -97659.24, -13498.42, -26573.00, 0.000, 0.000, 0.000, 17:15:18.351
51, 137081.86, 157628.59, -92317.04, -76596.50, 6699.06, -31825.91, -34788.01, -36024.66, -47768.85, -61480.10, -41717.25, -42402.80, -66331.80, -97659.24, -13498.42, -26573.00, 0.000, 0.000, 0.000, 17:15:18.351
52, 137081.86, 157628.59, -92317.04, -76596.50, 6699.06, -31825.91, -34788.01, -36024.66, -47760.20, -61484.08, -41710.79, -42399.38, -66327.26, -97656.66, -13522.07, -26610.62, 0.062, 0.942, -0.278, 17:15:18.352
53, 137088.97, 157636.98, -92314.80, -76597.81, 6701.39, -31822.49, -34796.59, -36027.05, -47760.20, -61484.08, -41710.79, -42399.38, -66327.26, -97656.66, -13522.07, -26610.62, 0.000, 0.000, 0.000, 17:15:18.352
54, 137088.97, 157636.98, -92314.80, -76597.81, 6701.39, -31822.49, -34796.59, -36027.05, -47752.67, -61478.63, -41701.94, -42391.76, -66321.27, -97649.27, -13504.28, -26571.89, 0.000, 0.000, 0.000, 17:15:18.352
55, 137090.80, 157663.19, -92309.66, -76593.10, 6712.47, -31815.40, -34799.99, -36023.10, -47752.67, -61478.63, -41701.94, -42391.76, -66321.27, -97649.27, -13504.28, -26571.89, 0.000, 0.000, 0.000, 17:15:18.352
56, 137090.80, 157663.19, -92309.66, -76593.10, 6712.47, -31815.40, -34799.99, -36023.10, -47759.57, -61477.00, -41709.92, -42388.65, -66323.32, -97654.39, -13509.89, -26596.96, 0.000, 0.000, 0.000, 17:15:18.353
57, 137084.78, 157645.17, -92311.47, -76599.11, 6709.14, -31824.84, -34802.02, -36027.41, -47759.57, -61477.00, -41709.92, -42388.65, -66323.32, -97654.39, -13509.89, -26596.96, 0.000, 0.000, 0.000, 17:15:18.353
58, 137084.78, 157645.17, -92311.47, -76599.11, 6709.14, -31824.84, -34802.02, -36027.41, -47765.65, -61478.27, -41710.57, -42393.99, -66325.96, -97657.56, -13495.45, -26584.20, 0.000, 0.000, 0.000, 17:15:18.353
59, 137093.33, 157680.64, -92313.10, -76608.75, 6724.41, -31817.97, -34809.15, -36020.80, -47765.65, -61478.27, -41710.57, -42393.99, -66325.96, -97657.56, -13495.45, -26584.20, 0.000, 0.000, 0.000, 17:15:18.354
60, 137093.33, 157680.64, -92313.10, -76608.75, 6724.41, -31817.97, -34809.15, -36020.80, -47762.23, -61482.11, -41718.43, -42391.64, -66324.06, -97656.63, -13485.86, -26581.95, 0.000, 0.000, 0.000, 17:15:18.354
61, 137081.56, 157661.69, -92323.41, -76610.00, 6739.70, -31829.60, -34808.37, -36029.25, -47762.23, -61482.11, -41718.43, -42391.64, -66324.06, -97656.63, -13485.86, -26581.95, 0.000, 0.000, 0.000, 17:15:18.354
62, 137081.56, 157661.69, -92323.41, -76610.00, 6739.70, -31829.60, -34808.37, -36029.25, -47762.73, -61489.47, -41716.24, -42390.04, -66329.83, -97660.53, -13513.84, -26624.71, 0.064, 0.938, -0.276, 17:15:18.355
63, 137090.06, 157643.00, -92311.27, -76597.37, 6750.07, -31809.77, -34795.07, -36017.00, -47762.73, -61489.47, -41716.24, -42390.04, -66329.83, -97660.53, -13513.84, -26624.71, 0.000, 0.000, 0.000, 17:15:18.355
64, 137090.06, 157643.00, -92311.27, -76597.37, 6750.07, -31809.77, -34795.07, -36017.00, -47755.42, -61478.63, -41712.27, -42395.56, -66324.35, -97648.69, -13509.06, -26583.67, 0.000, 0.000, 0.000, 17:15:18.355
65, 137091.80, 157677.14, -92326.54, -76609.66, 6747.25, -31827.34, -34798.20, -36027.25, -47755.42, -61478.63, -41712.27, -42395.56, -66324.35, -97648.69, -13509.06, -26583.67, 0.000, 0.000, 0.000, 17:15:18.355
66, 137091.80, 157677.14, -92326.54, -76609.66, 6747.25, -31827.34, -34798.20, -36027.25, -47767.69, -61492.53, -41722.97, -42407.85, -66337.20, -97661.23, -13500.95, -26600.86, 0.000, 0.000, 0.000, 17:15:18.356
67, 137082.84, 157649.08, -92327.84, -76611.72, 6733.31, -31833.91, -34795.34, -36038.32, -47767.69, -61492.53, -41722.97, -42407.85, -66337.20, -97661.23, -13500.95, -26600.86, 0.000, 0.000, 0.000, 17:15:18.356
68, 137082.84, 157649.08, -92327.84, -76611.72, 6733.31, -31833.91, -34795.34, -36038.32, -47770.66, -61485.24, -41715.21, -42390.86, -66331.84, -97656.02, -13491.04, -26604.61, 0.000, 0.000, 0.000, 17:15:18.356
69, 137092.03, 157680.06, -92324.21, -76616.75, 6726.18, -31826.69, -34797.24, -36030.92, -47770.66, -61485.24, -41715.21, -42390.86, -66331.84, -97656.02, -13491.04, -26604.61, 0.000, 0.000, 0.000, 17:15:18.356
70, 137092.03, 157680.06, -92324.21, -76616.75, 6726.18, -31826.69, -34797.24, -36030.92, -47780.76, -61503.89, -41722.12, -42411.54, -66342.52, -97666.44, -13460.20, -26586.97, 0.000, 0.000, 0.000, 17:15:18.357
71, 137065.11, 157663.08, -92340.41, -76628.35, 6719.43, -31843.68, -34820.64, -36057.09, -47780.76, -61503.89, -41722.12, -42411.54, -66342.52, -97666.44, -13460.20, -26586.97, 0.000, 0.000, 0.000, 17:15:18.357
72, 137065.11, 157663.08, -92340.41, -76628.35, 6719.43, -31843.68, -34820.64, -36057.09, -47782.98, -61510.28, -41738.80, -42411.61, -66346.84, -97670.02, -13467.31, -26620.70, 0.060, 0.938, -0.278, 17:15:18.357
73, 137059.19, 157665.00, -92341.76, -76628.95, 6727.38, -31840.53, -34821.80, -36047.15, -47782.98, -61510.28, -41738.80, -42411.61, -66346.84, -97670.02, -13467.31, -26620.70, 0.000, 0.000, 0.000, 17:15:18.357
74, 137059.19, 157665.00, -92341.76, -76628.95, 6727.38, -31840.53, -34821.80, -36047.15, -47787.96, -61507.33, -41734.15, -42419.00, -66351.04, -97672.27, -13433.35, -26581.48, 0.000, 0.000, 0.000, 17:15:18.358
75, 137062.75, 157676.78, -92332.51, -76617.38, 6750.49, -31848.40, -34814.83, -36059.06, -47787.96, -61507.33, -41734.15, -42419.00, -66351.04, -97672.27, -13433.35, -26581.48, 0.000, 0.000, 0.000, 17:15:18.358
76, 137062.75, 157676.78, -92332.51, -76617.38, 6750.49, -31848.40, -34814.83, -36059.06, -47772.29, -61493.36, -41716.31, -42404.77, -66336.00, -97661.67, -13466.19, -26634.18, 0.000, 0.000, 0.000, 17:15:18.358
77, 137052.67, 157633.39, -92329.35, -76620.73, 6762.03, -31841.24, -34815.43, -36057.90, -47772.29, -61493.36, -41716.31, -42404.77, -66336.00, -97661.67, -13466.19, -26634.18, 0.000, 0.000, 0.000, 17:15:18.359
78, 137052.67, 157633.39, -92329.35, -76620.73, 6762.03, -31841.24, -34815.43, -36057.90, -47776.34, -61491.32, -41726.70, -42391.40, -66336.27, -97664.45, -13450.03, -26616.28, 0.000, 0.000, 0.000, 17:15:18.359
79, 137049.19, 157650.00, -92326.05, -76622.65, 6760.42, -31830.49, -34816.66, -36054.50, -47776.34, -61491.32, -41726.70, -42391.40, -66336.27, -97664.45, -13450.03, -26616.28, 0.000, 0.000, 0.000, 17:15:18.359
80, 137049.19, 157650.00, -92326.05, -76622.65, 6760.42, -31830.49, -34816.66, -36054.50, -47779.67, -61496.04, -41741.01, -42405.53, -66338.27, -97665.85, -13416.34, -26589.50, 0.000, 0.000, 0.000, 17:15:18.360
81, 137026.92, 157636.45, -92325.20, -76616.79, 6750.54, -31837.27, -34812.17, -36064.58, -47779.67, -61496.04, -41741.01, -42405.53, -66338.27, -97665.85, -13416.34, -26589.50, 0.000, 0.000, 0.000, 17:15:18.360
82, 137026.92, 157636.45, -92325.20, -76616.79, 6750.54, -31837.27, -34812.17, -36064.58, -47770.30, -61495.75, -41734.08, -42407.36, -66334.34, -97658.99, -13435.41, -26636.13, 0.058, 0.936, -0.278, 17:15:18.361
83, 137030.50, 157638.11, -92322.54, -76611.41, 6772.85, -31827.27, -34794.96, -36051.64, -47770.30, -61495.75, -41734.08, -42407.36, -66334.34, -97658.99, -13435.41, -26636.13, 0.000, 0.000, 0.000, 17:15:18.361
84, 137030.50, 157638.11, -92322.54, -76611.41, 6772.85, -31827.27, -34794.96, -36051.64, -47757.90, -61481.31, -41708.36, -42397.10, -66324.66, -97647.46, -13425.24, -26611.27, 0.000, 0.000, 0.000, 17:15:18.361
85, 137032.03, 157669.36, -92321.02, -76612.26, 6806.96, -31823.94, -34786.27, -36041.54, -47757.90, -61481.31, -41708.36, -42397.10, -66324.66, -97647.46, -13425.24, -26611.27, 0.000, 0.000, 0.000, 17:15:18.362
86, 137032.03, 157669.36, -92321.02, -76612.26, 6806.96, -31823.94, -34786.27, -36041.54, -47767.44, -61495.23, -41722.12, -42404.12, -66335.55, -97656.80, -13431.90, -26641.18, 0.000, 0.000, 0.000, 17:15:18.362
87, 137023.23, 157661.73, -92326.90, -76615.66, 6783.06, -31837.09, -34790.55, -36062.86, -47767.44, -61495.23, -41722.12, -42404.12, -66335.55, -97656.80, -13431.90, -26641.18, 0.000, 0.000, 0.000, 17:15:18.362
88, 137023.23, 157661.73, -92326.90, -76615.66, 6783.06, -31837.09, -34790.55, -36062.86, -47777.10, -61500.93, -41717.83, -42401.13, -66341.36, -97660.87, -13416.83, -26629.51, 0.000, 0.000, 0.000, 17:15:18.362
89, 137030.72, 157707.47, -92331.81, -76624.98, 6796.11, -31835.59, -34782.26, -36057.27, -47777.10, -61500.93, -41717.83, -42401.13, -66341.36, -97660.87, -13416.83, -26629.51, 0.000, 0.000, 0.000, 17:15:18.363
90, 137030.72, 157707.47, -92331.81, -76624.98, 6796.11, -31835.59, -34782.26, -36057.27, -47781.43, -61508.80, -41727.04, -42419.47, -66344.02, -97664.78, -13389.41, -26608.41, 0.000, 0.000, 0.000, 17:15:18.363
91, 137003.98, 157692.94, -92339.86, -76627.43, 6797.14, -31848.80, -34789.17, -36066.44, -47781.43, -61508.80, -41727.04, -42419.47, -66344.02, -97664.78, -13389.41, -26608.41, 0.000, 0.000, 0.000, 17:15:18.363
92, 137003.98, 157692.94, -92339.86, -76627.43, 6797.14, -31848.80, -34789.17, -36066.44, -47781.73, -61520.94, -41738.46, -42422.31, -66347.46, -97666.34, -13388.85, -26642.34, 0.060, 0.936, -0.276, 17:15:18.364
93, 136999.94, 157690.34, -92335.61, -76629.71, 6814.38, -31843.79, -34793.44, -36061.19, -47781.73, -61520.94, -41738.46, -42422.31, -66347.46, -97666.34, -13388.85, -26642.34, 0.000, 0.000, 0.000, 17:15:18.364
94, 136999.94, 157690.34, -92335.61, -76629.71, 6814.38, -31843.79, -34793.44, -36061.19, -47773.68, -61508.20, -41726.68, -42407.72, -66337.16, -97656.66, -13376.00, -26614.29, 0.000, 0.000, 0.000, 17:15:18.364
95, 137006.20, 157714.69, -92321.22, -76624.75, 6808.34, -31832.95, -34785.53, -36057.86, -47773.68, -61508.20, -41726.68, -42407.72, -66337.16, -97656.66, -13376.00, -26614.29, 0.000, 0.000, 0.000, 17:15:18.365
96, 137006.20, 157714.69, -92321.22, -76624.75, 6808.34, -31832.95, -34785.53, -36057.86, -47777.90, -61512.85, -41737.34, -42413.48, -66343.24, -97663.42, -13373.23, -26630.47, 0.000, 0.000, 0.000, 17:15:18.365
97, 136989.09, 157687.17, -92328.41, -76631.08, 6816.01, -31843.79, -34788.95, -36064.36, -47777.90, -61512.85, -41737.34, -42413.48, -66343.24, -97663.42, -13373.23, -26630.47, 0.000, 0.000, 0.000, 17:15:18.365
98, 136989.09, 157687.17, -92328.41, -76631.08, 6816.01, -31843.79, -34788.95, -36064.36, -47768.83, -61503.62, -41729.83, -42405.04, -66337.38, -97658.97, -13382.50, -26639.81, 0.000, 0.000, 0.000, 17:15:18.365
99, 137003.72, 157716.86, -92324.21, -76631.43, 6824.73, -31830.34, -34777.50, -36037.49, -47768.83, -61503.62, -41729.83, -42405.04, -66337.38, -97658.97, -13382.50, -26639.81, 0.000, 0.000, 0.000, 17:15:18.366
100, 137003.72, 157716.86, -92324.21, -76631.43, 6824.73, -31830.34, -34777.50, -36037.49, -47782.57, -61522.86, -41734.95, -42411.54, -66351.17, -97674.21, -13343.32, -26609.55, 0.000, 0.000, 0.000, 17:15:18.366
101, 136972.05, 157696.17, -92331.12, -76639.13, 6828.73, -31844.55, -34780.27, -36059.49, -47782.57, -61522.86, -41734.95, -42411.54, -66351.17, -97674.21, -13343.32, -26609.55, 0.000, 0.000, 0.000, 17:15:18.366
102, 136972.05, 157696.17, -92331.12, -76639.13, 6828.73, -31844.55, -34780.27, -36059.49, -47769.30, -61517.30, -41705.87, -42405.04, -66338.21, -97663.84, -13377.81, -26662.34, 0.058, 0.936, -0.274, 17:15:18.366
103, 136978.97, 157690.59, -92330.83, -76647.26, 6847.79, -31835.74, -34786.51, -36047.06, -47769.30, -61517.30, -41705.87, -42405.04, -66338.21, -97663.84, -13377.81, -26662.34, 0.000, 0.000, 0.000, 17:15:18.366
104, 136978.97, 157690.59, -92330.83, -76647.26, 6847.79, -31835.74, -34786.51, -36047.06, -47775.78, -61522.21, -41721.81, -42411.47, -66344.53, -97667.58, -13334.94, -26611.79, 0.000, 0.000, 0.000, 17:15:18.366
105, 136980.73, 157679.55, -92322.83, -76632.30, 6855.01, -31834.49, -34780.97, -36042.34, -47775.78, -61522.21, -41721.81, -42411.47, -66344.53, -97667.58, -13334.94, -26611.79, 0.000, 0.000, 0.000, 17:15:18.367
106, 136980.73, 157679.55, -92322.83, -76632.30, 6855.01, -31834.49, -34780.97, -36042.34, -47762.41, -61506.07, -41730.66, -42402.04, -66330.50, -97654.86, -13364.29, -26653.94, 0.000, 0.000, 0.000, 17:15:18.367
107, 136984.05, 157628.55, -92308.68, -76621.71, 6873.05, -31824.79, -34764.38, -36039.71, -47762.41, -61506.07, -41730.66, -42402.04, -66330.50, -97654.86, -13364.29, -26653.94, 0.000, 0.000, 0.000, 17:15:18.803
108, 136984.05, 157628.55, -92308.68, -76621.71, 6873.05, -31824.79, -34764.38, -36039.71, -47757.52, -61497.18, -41719.55, -42396.23, -66324.06, -97650.90, -13366.97, -26643.95, 0.000, 0.000, 0.000, 17:15:18.804
109, 136989.05, 157667.88, -92311.38, -76630.54, 6869.61, -31820.61, -34783.61, -36042.30, -47757.52, -61497.18, -41719.55, -42396.23, -66324.06, -97650.90, -13366.97, -26643.95, 0.000, 0.000, 0.000, 17:15:18.804
110, 136989.05, 157667.88, -92311.38, -76630.54, 6869.61, -31820.61, -34783.61, -36042.30, -47764.45, -61506.19, -41717.18, -42406.91, -66326.92, -97656.20, -13340.91, -26621.98, 0.000, 0.000, 0.000, 17:15:18.804
111, 136965.47, 157639.81, -92312.34, -76619.84, 6865.45, -31832.01, -34787.74, -36045.32, -47764.45, -61506.19, -41717.18, -42406.91, -66326.92, -97656.20, -13340.91, -26621.98, 0.000, 0.000, 0.000, 17:15:18.804
112, 136965.47, 157639.81, -92312.34, -76619.84, 6865.45, -31832.01, -34787.74, -36045.32, -47759.82, -61506.21, -41718.23, -42402.96, -66321.31, -97651.55, -13355.28, -26657.67, 0.064, 0.934, -0.274, 17:15:18.804
113, 136953.45, 157631.16, -92316.52, -76626.49, 6865.85, -31823.99, -34797.89, -36043.57, -47759.82, -61506.21, -41718.23, -42402.96, -66321.31, -97651.55, -13355.28, -26657.67, 0.000, 0.000, 0.000, 17:15:18.805
114, 136953.45, 157631.16, -92316.52, -76626.49, 6865.85, -31823.99, -34797.89, -36043.57, -47777.14, -61522.50, -41727.15, -42408.48, -66336.71, -97664.78, -13295.20, -26598.13, 0.000, 0.000, 0.000, 17:15:18.805
115, 136942.39, 157643.23, -92325.45, -76631.01, 6881.61, -31838.11, -34798.43, -36055.78, -47777.14, -61522.50, -41727.15, -42408.48, -66336.71, -97664.78, -13295.20, -26598.13, 0.000, 0.000, 0.000, 17:15:18.805
116, 136942.39, 157643.23, -92325.45, -76631.01, 6881.61, -31838.11, -34798.43, -36055.78, -47767.35, -61509.43, -41718.25, -42413.35, -66327.75, -97657.16, -13308.85, -26644.98, 0.000, 0.000, 0.000, 17:15:18.806
117, 136948.23, 157599.06, -92317.13, -76626.36, 6894.95, -31835.21, -34784.63, -36042.68, -47767.35, -61509.43, -41718.25, -42413.35, -66327.75, -97657.16, -13308.85, -26644.98, 0.000, 0.000, 0.000, 17:15:18.806
118, 136948.23, 157599.06, -92317.13, -76626.36, 6894.95, -31835.21, -34784.63, -36042.68, -47776.25, -61513.03, -41730.77, -42412.79, -66329.78, -97660.91, -13307.63, -26640.71, 0.000, 0.000, 0.000, 17:15:18.807
119, 136952.95, 157622.33, -92315.63, -76633.94, 6896.52, -31828.68, -34781.44, -36044.80, -47776.25, -61513.03, -41730.77, -42412.79, -66329.78, -97660.91, -13307.63, -26640.71, 0.000, 0.000, 0.000, 17:15:18.807
120, 136952.95, 157622.33, -92315.63, -76633.94, 6896.52, -31828.68, -34781.44, -36044.80, -47780.32, -61521.70, -41737.84, -42410.58, -66336.33, -97668.38, -13301.32, -26634.54, 0.000, 0.000, 0.000, 17:15:18.808
121, 136926.52, 157603.83, -92333.71, -76643.80, 6907.78, -31847.72, -34801.26, -36049.96, -47780.32, -61521.70, -41737.84, -42410.58, -66336.33, -97668.38, -13301.32, -26634.54, 0.000, 0.000, 0.000, 17:15:18.808
122, 136926.52, 157603.83, -92333.71, -76643.80, 6907.78, -31847.72, -34801.26, -36049.96, -47774.59, -61531.69, -41733.03, -42423.54, -66339.70, -97671.17, -13335.05, -26685.59, 0.064, 0.942, -0.272, 17:15:18.808
123, 136942.11, 157595.38, -92319.97, -76624.13, 6928.35, -31828.06, -34792.70, -36043.28, -47774.59, -61531.69, -41733.03, -42423.54, -66339.70, -97671.17, -13335.05, -26685.59, 0.000, 0.000, 0.000, 17:15:18.808
124, 136942.11, 157595.38, -92319.97, -76624.13, 6928.35, -31828.06, -34792.70, -36043.28, -47774.84, -61515.35, -41735.38, -42412.52, -66333.16, -97662.05, -13303.98, -26630.96, 0.000, 0.000, 0.000, 17:15:18.809
125, 136938.05, 157640.52, -92323.50, -76629.13, 6906.55, -31835.16, -34803.50, -36045.11, -47774.84, -61515.35, -41735.38, -42412.52, -66333.16, -97662.05, -13303.98, -26630.96, 0.000, 0.000, 0.000, 17:15:18.809
126, 136938.05, 157640.52, -92323.50, -76629.13, 6906.55, -31835.16, -34803.50, -36045.11, -47773.39, -61516.47, -41718.39, -42423.45, -66327.37, -97660.96, -13296.29, -26647.12, 0.000, 0.000, 0.000, 17:15:18.809
127, 136927.78, 157602.28, -92317.33, -76623.70, 6916.48, -31832.24, -34796.77, -36048.36, -47773.39, -61516.47, -41718.39, -42423.45, -66327.37, -97660.96, -13296.29, -26647.12, 0.000, 0.000, 0.000, 17:15:18.809
128, 136927.78, 157602.28, -92317.33, -76623.70, 6916.48, -31832.24, -34796.77, -36048.36, -47778.37, -61517.90, -41733.72, -42419.30, -66327.32, -97661.09, -13278.14, -26633.98, 0.000, 0.000, 0.000, 17:15:18.809
129, 136914.52, 157631.77, -92322.23, -76626.78, 6928.68, -31830.25, -34800.03, -36043.50, -47778.37, -61517.90, -41733.72, -42419.30, -66327.32, -97661.09, -13278.14, -26633.98, 0.000, 0.000, 0.000, 17:15:18.809
130, 136914.52, 157631.77, -92322.23, -76626.78, 6928.68, -31830.25, -34800.03, -36043.50, -47772.52, -61520.05, -41727.91, -42419.43, -66324.06, -97658.34, -13254.61, -26627.03, 0.000, 0.000, 0.000, 17:15:18.810
131, 136888.83, 157614.80, -92318.73, -76625.13, 6941.22, -31840.26, -34799.12, -36051.26, -47772.52, -61520.05, -41727.91, -42419.43, -66324.06, -97658.34, -13254.61, -26627.03, 0.000, 0.000, 0.000, 17:15:18.810
132, 136888.83, 157614.80, -92318.73, -76625.13, 6941.22, -31840.26, -34799.12, -36051.26, -47775.64, -61520.63, -41735.40, -42420.79, -66325.89, -97662.21, -13252.77, -26654.99, 0.064, 0.940, -0.270, 17:15:18.810
133, 136889.39, 157626.11, -92328.03, -76640.87, 6943.03, -31845.47, -34789.37, -36046.30, -47775.64, -61520.63, -41735.40, -42420.79, -66325.89, -97662.21, -13252.77, -26654.99, 0.000, 0.000, 0.000, 17:15:18.810
134, 136889.39, 157626.11, -92328.03, -76640.87, 6943.03, -31845.47, -34789.37, -36046.30, -47784.03, -61543.74, -41742.66, -42431.81, -66344.80, -97682.75, -13217.50, -26632.57, 0.000, 0.000, 0.000, 17:15:18.810
135, 136859.19, 157641.17, -92347.86, -76656.91, 6937.36, -31867.98, -34827.70, -36071.87, -47784.03, -61543.74, -41742.66, -42431.81, -66344.80, -97682.75, -13217.50, -26632.57, 0.000, 0.000, 0.000, 17:15:18.810
136, 136859.19, 157641.17, -92347.86, -76656.91, 6937.36, -31867.98, -34827.70, -36071.87, -47776.88, -61542.60, -41739.58, -42445.92, -66357.41, -97694.71, -13219.49, -26685.46, 0.000, 0.000, 0.000, 17:15:18.811
137, 136870.66, 157609.19, -92334.94, -76637.55, 6960.42, -31858.61, -34819.32, -36065.25, -47776.88, -61542.60, -41739.58, -42445.92, -66357.41, -97694.71, -13219.49, -26685.46, 0.000, 0.000, 0.000, 17:15:18.811
138, 136870.66, 157609.19, -92334.94, -76637.55, 6960.42, -31858.61, -34819.32, -36065.25, -47778.21, -61509.63, -41736.00, -42420.46, -66327.81, -97667.38, -13221.82, -26676.81, 0.000, 0.000, 0.000, 17:15:18.811
139, 136881.81, 157675.84, -92320.14, -76632.87, 6970.37, -31839.86, -34811.30, -36050.08, -47778.21, -61509.63, -41736.00, -42420.46, -66327.81, -97667.38, -13221.82, -26676.81, 0.000, 0.000, 0.000, 17:15:18.811
140, 136881.81, 157675.84, -92320.14, -76632.87, 6970.37, -31839.86, -34811.30, -36050.08, -47784.81, -61513.05, -41745.70, -42423.07, -66327.66, -97668.38, -13213.28, -26653.11, 0.000, 0.000, 0.000, 17:15:18.811
141, 136871.64, 157663.70, -92316.05, -76627.88, 6969.32, -31846.00, -34809.69, -36053.05, -47784.81, -61513.05, -41745.70, -42423.07, -66327.66, -97668.38, -13213.28, -26653.11, 0.000, 0.000, 0.000, 17:15:18.812
142, 136871.64, 157663.70, -92316.05, -76627.88, 6969.32, -31846.00, -34809.69, -36053.05, -47782.26, -61504.98, -41734.75, -42413.60, -66319.68, -97661.23, -13233.57, -26682.53, 0.064, 0.938, -0.274, 17:15:18.812
143, 136904.72, 157667.50, -92313.73, -76632.87, 6986.08, -31831.23, -34808.80, -36058.70, -47782.26, -61504.98, -41734.75, -42413.60, -66319.68, -97661.23, -13233.57, -26682.53, 0.000, 0.000, 0.000, 17:15:18.812
144, 136904.72, 157667.50, -92313.73, -76632.87, 6986.08, -31831.23, -34808.80, -36058.70, -47798.15, -61507.80, -41747.25, -42414.58, -66322.02, -97667.20, -13184.76, -26632.08, 0.000, 0.000, 0.000, 17:15:18.812
145, 136907.05, 157656.70, -92307.96, -76628.10, 6981.25, -31827.07, -34802.96, -36057.90, -47798.15, -61507.80, -41747.25, -42414.58, -66322.02, -97667.20, -13184.76, -26632.08, 0.000, 0.000, 0.000, 17:15:18.813
146, 136907.05, 157656.70, -92307.96, -76628.10, 6981.25, -31827.07, -34802.96, -36057.90, -47788.41, -61482.63, -41735.71, -42399.98, -66297.02, -97645.78, -13196.49, -26662.05, 0.000, 0.000, 0.000, 17:15:18.813
147, 136933.31, 157594.97, -92281.21, -76603.18, 7009.86, -31802.49, -34777.77, -36037.22, -47788.41, -61482.63, -41735.71, -42399.98, -66297.02, -97645.78, -13196.49, -26662.05, 0.000, 0.000, 0.000, 17:15:18.813
148, 136933.31, 157594.97, -92281.21, -76603.18, 7009.86, -31802.49, -34777.77, -36037.22, -47784.03, -61463.63, -41730.71, -42382.30, -66287.52, -97633.16, -13189.21, -26649.16, 0.000, 0.000, 0.000, 17:15:18.813
149, 136948.34, 157640.52, -92290.20, -76612.19, 7027.63, -31801.46, -34783.92, -36024.68, -47784.03, -61463.63, -41730.71, -42382.30, -66287.52, -97633.16, -13189.21, -26649.16, 0.000, 0.000, 0.000, 17:15:18.814
150, 136948.34, 157640.52, -92290.20, -76612.19, 7027.63, -31801.46, -34783.92, -36024.68, -47796.99, -61475.90, -41733.54, -42400.43, -66301.71, -97647.62, -13145.93, -26618.02, 0.000, 0.000, 0.000, 17:15:18.814
151, 136933.36, 157621.61, -92300.63, -76621.94, 7026.32, -31816.41, -34797.38, -36059.87, -47796.99, -61475.90, -41733.54, -42400.43, -66301.71, -97647.62, -13145.93, -26618.02, 0.000, 0.000, 0.000, 17:15:18.814
152, 136933.36, 157621.61, -92300.63, -76621.94, 7026.32, -31816.41, -34797.38, -36059.87, -47791.25, -61478.34, -41729.75, -42395.56, -66298.73, -97645.83, -13160.91, -26658.77, 0.062, 0.940, -0.278, 17:15:18.814
153, 136944.17, 157611.39, -92292.18, -76609.15, 7026.27, -31804.72, -34790.11, -36036.91, -47791.25, -61478.34, -41729.75, -42395.56, -66298.73, -97645.83, -13160.91, -26658.77, 0.000, 0.000, 0.000, 17:15:18.815
154, 136944.17, 157611.39, -92292.18, -76609.15, 7026.27, -31804.72, -34790.11, -36036.91, -47780.61, -61468.17, -41720.36, -42388.45, -66288.30, -97633.89, -13146.36, -26626.58, 0.000, 0.000, 0.000, 17:15:18.815
155, 136955.06, 157633.58, -92282.17, -76595.83, 7042.68, -31803.27, -34790.76, -36024.42, -47780.61, -61468.17, -41720.36, -42388.45, -66288.30, -97633.89, -13146.36, -26626.58, 0.000, 0.000, 0.000, 17:15:18.815
156, 136955.06, 157633.58, -92282.17, -76595.83, 7042.68, -31803.27, -34790.76, -36024.42, -47781.77, -61474.94, -41720.18, -42401.84, -66290.58, -97638.25, -13140.95, -26651.79, 0.000, 0.000, 0.000, 17:15:18.815
157, 136948.33, 157611.06, -92285.43, -76598.15, 7050.19, -31809.46, -34789.82, -36050.28, -47781.77, -61474.94, -41720.18, -42401.84, -66290.58, -97638.25, -13140.95, -26651.79, 0.000, 0.000, 0.000, 17:15:18.816
158, 136948.33, 157611.06, -92285.43, -76598.15, 7050.19, -31809.46, -34789.82, -36050.28, -47783.94, -61484.21, -41732.07, -42391.63, -66294.55, -97642.79, -13124.32, -26643.37, 0.000, 0.000, 0.000, 17:15:18.816
159, 136951.97, 157638.67, -92285.59, -76591.85, 7041.18, -31800.76, -34795.56, -36045.00, -47783.94, -61484.21, -41732.07, -42391.63, -66294.55, -97642.79, -13124.32, -26643.37, 0.000, 0.000, 0.000, 17:15:18.816
160, 136951.97, 157638.67, -92285.59, -76591.85, 7041.18, -31800.76, -34795.56, -36045.00, -47776.79, -61468.12, -41720.58, -42400.68, -66295.09, -97642.32, -13100.54, -26632.55, 0.000, 0.000, 0.000, 17:15:18.816
161, 136941.13, 157629.08, -92292.59, -76587.18, 7052.78, -31805.19, -34793.64, -36042.03, -47776.79, -61468.12, -41720.58, -42400.68, -66295.09, -97642.32, -13100.54, -26632.55, 0.000, 0.000, 0.000, 17:15:18.816
162, 136941.13, 157629.08, -92292.59, -76587.18, 7052.78, -31805.19, -34793.64, -36042.03, -47770.46, -61459.09, -41713.81, -42390.33, -66294.69, -97642.30, -13120.96, -26674.41, 0.060, 0.940, -0.272, 17:15:18.817
163, 136955.75, 157626.59, -92286.17, -76575.76, 7059.55, -31791.44, -34792.14, -36040.22, -47770.46, -61459.09, -41713.81, -42390.33, -66294.69, -97642.30, -13120.96, -26674.41, 0.000, 0.000, 0.000, 17:15:18.817
164, 136955.75, 157626.59, -92286.17, -76575.76, 7059.55, -31791.44, -34792.14, -36040.22, -47779.27, -61467.07, -41716.85, -42389.64, -66301.84, -97647.33, -13084.69, -26623.10, 0.000, 0.000, 0.000, 17:15:18.817
165, 136954.98, 157645.13, -92289.32, -76574.10, 7062.30, -31801.57, -34795.54, -36044.89, -47779.27, -61467.07, -41716.85, -42389.64, -66301.84, -97647.33, -13084.69, -26623.10, 0.000, 0.000, 0.000, 17:15:18.817
166, 136954.98, 157645.13, -92289.32, -76574.10, 7062.30, -31801.57, -34795.54, -36044.89, -47781.75, -61466.85, -41700.29, -42393.46, -66303.41, -97651.57, -13089.29, -26660.89, 0.000, 0.000, 0.000, 17:15:18.817
167, 136944.97, 157618.34, -92297.62, -76577.23, 7064.49, -31816.37, -34798.09, -36043.57, -47781.75, -61466.85, -41700.29, -42393.46, -66303.41, -97651.57, -13089.29, -26660.89, 0.000, 0.000, 0.000, 17:15:18.818
168, 136944.97, 157618.34, -92297.62, -76577.23, 7064.49, -31816.37, -34798.09, -36043.57, -47792.25, -61476.28, -41715.26, -42394.35, -66311.03, -97657.49, -13062.98, -26655.37, 0.000, 0.000, 0.000, 17:15:18.818
169, 136960.84, 157644.09, -92296.07, -76575.38, 7050.37, -31807.07, -34800.10, -36042.34, -47792.25, -61476.28, -41715.26, -42394.35, -66311.03, -97657.49, -13062.98, -26655.37, 0.000, 0.000, 0.000, 17:15:18.818
170, 136960.84, 157644.09, -92296.07, -76575.38, 7050.37, -31807.07, -34800.10, -36042.34, -47782.73, -61479.54, -41700.84, -42397.70, -66305.38, -97652.48, -13049.31, -26641.13, 0.000, 0.000, 0.000, 17:15:18.818
171, 136966.80, 157620.16, -92284.02, -76560.91, 7056.36, -31802.13, -34798.65, -36038.27, -47782.73, -61479.54, -41700.84, -42397.70, -66305.38, -97652.48, -13049.31, -26641.13, 0.000, 0.000, 0.000, 17:15:18.818
172, 136966.80, 157620.16, -92284.02, -76560.91, 7056.36, -31802.13, -34798.65, -36038.27, -47778.21, -61457.44, -41718.55, -42400.77, -66298.76, -97645.72, -13065.56, -26681.08, 0.056, 0.936, -0.276, 17:15:18.819
173, 136976.36, 157626.91, -92285.25, -76561.05, 7072.78, -31803.56, -34800.26, -36037.74, -47778.21, -61457.44, -41718.55, -42400.77, -66298.76, -97645.72, -13065.56, -26681.08, 0.000, 0.000, 0.000, 17:15:18.819
174, 136976.36, 157626.91, -92285.25, -76561.05, 7072.78, -31803.56, -34800.26, -36037.74, -47781.93, -61465.11, -41727.53, -42399.29, -66304.37, -97651.05, -13030.17, -26646.74, 0.000, 0.000, 0.000, 17:15:18.819
175, 136969.92, 157658.00, -92289.73, -76559.98, 7077.50, -31814.78, -34806.23, -36041.89, -47781.93, -61465.11, -41727.53, -42399.29, -66304.37, -97651.05, -13030.17, -26646.74, 0.000, 0.000, 0.000, 17:15:18.819
176, 136969.92, 157658.00, -92289.73, -76559.98, 7077.50, -31814.78, -34806.23, -36041.89, -47788.54, -61480.53, -41727.13, -42415.47, -66309.64, -97658.45, -13029.93, -26673.03, 0.000, 0.000, 0.000, 17:15:18.819
177, 136949.98, 157636.36, -92302.95, -76569.97, 7086.64, -31829.08, -34812.62, -36060.25, -47788.54, -61480.53, -41727.13, -42415.47, -66309.64, -97658.45, -13029.93, -26673.03, 0.000, 0.000, 0.000, 17:15:18.820
178, 136949.98, 157636.36, -92302.95, -76569.97, 7086.64, -31829.08, -34812.62, -36060.25, -47789.41, -61480.30, -41717.25, -42400.30, -66313.09, -97658.30, -13015.62, -26672.96, 0.000, 0.000, 0.000, 17:15:18.820
179, 136958.77, 157659.48, -92298.27, -76568.87, 7085.08, -31816.48, -34802.38, -36044.22, -47789.41, -61480.30, -41717.25, -42400.30, -66313.09, -97658.30, -13015.62, -26672.96, 0.000, 0.000, 0.000, 17:15:18.820
180, 136958.77, 157659.48, -92298.27, -76568.87, 7085.08, -31816.48, -34802.38, -36044.22, -47785.17, -61475.07, -41724.65, -42400.61, -66308.99, -97655.13, -12998.52, -26657.03, 0.000, 0.000, 0.000, 17:15:18.820
181, 136968.92, 157636.19, -92281.92, -76551.73, 7094.76, -31811.96, -34792.68, -36040.36, -47785.17, -61475.07, -41724.65, -42400.61, -66308.99, -97655.13, -12998.52, -26657.03, 0.000, 0.000, 0.000, 17:15:18.820
182, 136968.92, 157636.19, -92281.92, -76551.73, 7094.76, -31811.96, -34792.68, -36040.36, -47779.55, -61467.94, -41709.00, -42405.77, -66304.10, -97648.76, -13025.17, -26689.23, 0.060, 0.936, -0.276, 17:15:18.821
183, 136963.58, 157658.83, -92290.44, -76561.34, 7088.52, -31820.72, -34809.11, -36045.54, -47779.55, -61467.94, -41709.00, -42405.77, -66304.10, -97648.76, -13025.17, -26689.23, 0.000, 0.000, 0.000, 17:15:18.821
184, 136963.58, 157658.83, -92290.44, -76561.34, 7088.52, -31820.72, -34809.11, -36045.54, -47790.51, -61477.15, -41712.71, -42410.96, -66316.59, -97659.08, -12990.90, -26654.28, 0.000, 0.000, 0.000, 17:15:18.821
185, 136954.56, 157675.45, -92290.69, -76558.74, 7106.60, -31814.94, -34801.46, -36039.48, -47790.51, -61477.15, -41712.71, -42410.96, -66316.59, -97659.08, -12990.90, -26654.28, 0.000, 0.000, 0.000, 17:15:18.821
186, 136954.56, 157675.45, -92290.69, -76558.74, 7106.60, -31814.94, -34801.46, -36039.48, -47774.46, -61479.72, -41696.17, -42408.52, -66310.52, -97653.56, -13002.55, -26686.37, 0.000, 0.000, 0.000, 17:15:18.821
187, 136955.58, 157653.58, -92298.73, -76559.30, 7109.93, -31823.27, -34806.58, -36043.06, -47774.46, -61479.72, -41696.17, -42408.52, -66310.52, -97653.56, -13002.55, -26686.37, 0.000, 0.000, 0.000, 17:15:18.821
188, 136955.58, 157653.58, -92298.73, -76559.30, 7109.93, -31823.27, -34806.58, -36043.06, -47789.32, -61475.30, -41706.70, -42411.29, -66321.70, -97663.04, -12979.01, -26676.25, 0.000, 0.000, 0.000, 17:15:18.822
189, 136957.73, 157702.50, -92306.15, -76563.91, 7118.34, -31832.97, -34823.10, -36053.86, -47789.32, -61475.30, -41706.70, -42411.29, -66321.70, -97663.04, -12979.01, -26676.25, 0.000, 0.000, 0.000, 17:15:18.822
190, 136957.73, 157702.50, -92306.15, -76563.91, 7118.34, -31832.97, -34823.10, -36053.86, -47785.73, -61482.70, -41716.00, -42417.26, -66319.92, -97661.90, -12942.89, -26652.58, 0.000, 0.000, 0.000, 17:15:18.822
191, 136949.52, 157686.92, -92307.16, -76559.84, 7123.43, -31843.01, -34815.93, -36052.38, -47785.73, -61482.70, -41716.00, -42417.26, -66319.92, -97661.90, -12942.89, -26652.58, 0.000, 0.000, 0.000, 17:15:18.822
192, 136949.52, 157686.92, -92307.16, -76559.84, 7123.43, -31843.01, -34815.93, -36052.38, -47785.82, -61484.80, -41719.13, -42422.27, -66324.15, -97666.70, -12957.98, -26702.24, 0.054, 0.940, -0.278, 17:15:18.822
193, 136959.59, 157680.17, -92304.41, -76562.91, 7131.48, -31832.15, -34808.68, -36051.06, -47785.82, -61484.80, -41719.13, -42422.27, -66324.15, -97666.70, -12957.98, -26702.24, 0.000, 0.000, 0.000, 17:15:18.823
194, 136959.59, 157680.17, -92304.41, -76562.91, 7131.48, -31832.15, -34808.68, -36051.06, -47773.32, -61477.13, -41700.82, -42407.52, -66314.92, -97656.53, -12946.73, -26675.22, 0.000, 0.000, 0.000, 17:15:18.823
195, 136971.17, 157712.00, -92298.40, -76553.07, 7150.28, -31823.96, -34800.03, -36040.78, -47773.32, -61477.13, -41700.82, -42407.52, -66314.92, -97656.53, -12946.73, -26675.22, 0.000, 0.000, 0.000, 17:15:18.823
196, 136971.17, 157712.00, -92298.40, -76553.07, 7150.28, -31823.96, -34800.03, -36040.78, -47767.64, -61474.94, -41698.05, -42412.70, -66310.72, -97654.26, -12953.91, -26694.73, 0.000, 0.000, 0.000, 17:15:18.823
197, 136975.11, 157683.64, -92295.18, -76547.16, 7166.42, -31823.07, -34793.73, -36036.80, -47767.64, -61474.94, -41698.05, -42412.70, -66310.72, -97654.26, -12953.91, -26694.73, 0.000, 0.000, 0.000, 17:15:18.823
198, 136975.11, 157683.64, -92295.18, -76547.16, 7166.42, -31823.07, -34793.73, -36036.80, -47777.01, -61479.21, -41690.07, -42414.38, -66315.97, -97658.75, -12949.33, -26694.67, 0.000, 0.000, 0.000, 17:15:18.824
199, 136979.22, 157717.92, -92301.08, -76559.95, 7166.57, -31823.32, -34817.36, -36034.50, -47777.01, -61479.21, -41690.07, -42414.38, -66315.97, -97658.75, -12949.33, -26694.67, 0.000, 0.000, 0.000, 17:15:18.824
200, 136979.22, 157717.92, -92301.08, -76559.95, 7166.57, -31823.32, -34817.36, -36034.50, -47780.16, -61485.11, -41690.23, -42410.00, -66323.21, -97661.30, -12928.03, -26679.82, 0.000, 0.000, 0.000, 17:15:18.824
201, 136975.94, 157714.69, -92305.39, -76561.41, 7150.57, -31831.45, -34816.93, -36044.55, -47780.16, -61485.11, -41690.23, -42410.00, -66323.21, -97661.30, -12928.03, -26679.82, 0.000, 0.000, 0.000, 17:15:18.824
202, 136975.94, 157714.69, -92305.39, -76561.41, 7150.57, -31831.45, -34816.93, -36044.55, -47785.17, -61490.41, -41691.95, -42424.14, -66324.73, -97657.92, -12932.16, -26710.24, 0.056, 0.938, -0.278, 17:15:18.825
203, 136990.80, 157710.50, -92301.30, -76558.08, 7173.43, -31826.18, -34801.87, -36029.40, -47785.17, -61490.41, -41691.95, -42424.14, -66324.73, -97657.92, -12932.16, -26710.24, 0.000, 0.000, 0.000, 17:15:18.825
204, 136990.80, 157710.50, -92301.30, -76558.08, 7173.43, -31826.18, -34801.87, -36029.40, -47780.07, -61484.91, -41683.59, -42417.11, -66316.17, -97649.72, -12911.26, -26676.40, 0.000, 0.000, 0.000, 17:15:18.826
205, 137012.55, 157729.89, -92292.27, -76555.68, 7170.77, -31825.26, -34801.87, -36026.18, -47780.07, -61484.91, -41683.59, -42417.11, -66316.17, -97649.72, -12911.26, -26676.40, 0.000, 0.000, 0.000, 17:15:18.826
206, 137012.55, 157729.89, -92292.27, -76555.68, 7170.77, -31825.26, -34801.87, -36026.18, -47779.71, -61487.08, -41699.97, -42419.52, -66316.02, -97652.73, -12916.31, -26693.73, 0.000, 0.000, 0.000, 17:15:18.826
207, 136994.00, 157699.58, -92300.03, -76564.52, 7169.52, -31832.06, -34814.34, -36041.34, -47779.71, -61487.08, -41699.97, -42419.52, -66316.02, -97652.73, -12916.31, -26693.73, 0.000, 0.000, 0.000, 17:15:18.827
208, 136994.00, 157699.58, -92300.03, -76564.52, 7169.52, -31832.06, -34814.34, -36041.34, -47775.54, -61488.89, -41723.73, -42406.20, -66317.73, -97652.76, -12912.47, -26690.31, 0.000, 0.000, 0.000, 17:15:18.827
209, 137008.39, 157728.41, -92298.53, -76562.95, 7176.34, -31815.40, -34814.92, -36023.61, -47775.54, -61488.89, -41723.73, -42406.20, -66317.73, -97652.76, -12912.47, -26690.31, 0.000, 0.000, 0.000, 17:15:18.827
210, 137008.39, 157728.41, -92298.53, -76562.95, 7176.34, -31815.40, -34814.92, -36023.61, -47780.63, -61491.23, -41721.12, -42411.76, -66323.26, -97656.71, -12896.55, -26670.53, 0.000, 0.000, 0.000, 17:15:18.827
211, 137002.00, 157720.63, -92306.24, -76570.75, 7174.31, -31829.67, -34814.34, -36031.21, -47780.63, -61491.23, -41721.12, -42411.76, -66323.26, -97656.71, -12896.55, -26670.53, 0.000, 0.000, 0.000, 17:15:18.827
212, 137002.00, 157720.63, -92306.24, -76570.75, 7174.31, -31829.67, -34814.34, -36031.21, -47778.02, -61477.80, -41716.96, -42416.37, -66320.48, -97657.25, -12915.24, -26721.89, 0.064, 0.934, -0.278, 17:15:18.828
213, 137007.20, 157742.72, -92306.64, -76579.42, 7182.15, -31831.59, -34811.88, -36037.49, -47778.02, -61477.80, -41716.96, -42416.37, -66320.48, -97657.25, -12915.24, -26721.89, 0.000, 0.000, 0.000, 17:15:18.828
214, 137007.20, 157742.72, -92306.64, -76579.42, 7182.15, -31831.59, -34811.88, -36037.49, -47783.71, -61486.47, -41714.99, -42421.42, -66330.03, -97664.55, -12868.12, -26673.28, 0.000, 0.000, 0.000, 17:15:18.828
215, 136998.00, 157782.13, -92307.12, -76584.49, 7191.38, -31840.21, -34825.92, -36047.13, -47783.71, -61486.47, -41714.99, -42421.42, -66330.03, -97664.55, -12868.12, -26673.28, 0.000, 0.000, 0.000, 17:15:18.828
216, 136998.00, 157782.13, -92307.12, -76584.49, 7191.38, -31840.21, -34825.92, -36047.13, -47772.72, -61484.21, -41712.69, -42422.13, -66322.16, -97656.27, -12873.96, -26704.01, 0.000, 0.000, 0.000, 17:15:18.828
217, 136987.06, 157747.47, -92304.56, -76575.76, 7195.58, -31840.64, -34818.63, -36041.14, -47772.72, -61484.21, -41712.69, -42422.13, -66322.16, -97656.27, -12873.96, -26704.01, 0.000, 0.000, 0.000, 17:15:18.829
218, 136987.06, 157747.47, -92304.56, -76575.76, 7195.58, -31840.64, -34818.63, -36041.14, -47782.80, -61485.71, -41726.77, -42433.22, -66331.84, -97662.91, -12855.92, -26696.23, 0.000, 0.000, 0.000, 17:15:18.829
219, 136980.25, 157800.58, -92309.35, -76582.28, 7213.91, -31840.06, -34827.68, -36051.89, -47782.80, -61485.71, -41726.77, -42433.22, -66331.84, -97662.91, -12855.92, -26696.23, 0.000, 0.000, 0.000, 17:15:18.829
220, 136980.25, 157800.58, -92309.35, -76582.28, 7213.91, -31840.06, -34827.68, -36051.89, -47774.41, -61474.49, -41715.68, -42417.51, -66319.23, -97650.92, -12844.97, -26691.96, 0.000, 0.000, 0.000, 17:15:18.829
221, 137008.23, 157778.45, -92295.52, -76568.73, 7221.83, -31838.56, -34813.73, -36038.54, -47774.41, -61474.49, -41715.68, -42417.51, -66319.23, -97650.92, -12844.97, -26691.96, 0.000, 0.000, 0.000, 17:15:18.830
222, 137008.23, 157778.45, -92295.52, -76568.73, 7221.83, -31838.56, -34813.73, -36038.54, -47771.31, -61473.24, -41716.47, -42414.42, -66311.37, -97644.22, -12876.93, -26736.69, 0.064, 0.940, -0.278, 17:15:18.830
223, 137026.77, 157788.77, -92292.79, -76570.26, 7228.35, -31840.42, -34813.87, -36033.96, -47771.31, -61473.24, -41716.47, -42414.42, -66311.37, -97644.22, -12876.93, -26736.69, 0.000, 0.000, 0.000, 17:15:18.830
224, 137026.77, 157788.77, -92292.79, -76570.26, 7228.35, -31840.42, -34813.87, -36033.96, -47769.48, -61469.66, -41698.05, -42411.45, -66305.22, -97638.59, -12844.50, -26696.01, 0.000, 0.000, 0.000, 17:15:18.830
225, 137030.84, 157826.69, -92291.87, -76568.40, 7231.17, -31840.37, -34810.70, -36025.73, -47769.48, -61469.66, -41698.05, -42411.45, -66305.22, -97638.59, -12844.50, -26696.01, 0.000, 0.000, 0.000, 17:15:18.831
226, 137030.84, 157826.69, -92291.87, -76568.40, 7231.17, -31840.37, -34810.70, -36025.73, -47781.14, -61492.17, -41727.13, -42437.80, -66322.61, -97658.52, -12821.90, -26697.73, 0.000, 0.000, 0.000, 17:15:18.831
227, 137010.27, 157796.09, -92309.75, -76581.63, 7226.72, -31852.93, -34822.81, -36037.45, -47781.14, -61492.17, -41727.13, -42437.80, -66322.61, -97658.52, -12821.90, -26697.73, 0.000, 0.000, 0.000, 17:15:19.284
228, 137010.27, 157796.09, -92309.75, -76581.63, 7226.72, -31852.93, -34822.81, -36037.45, -47782.48, -61489.40, -41724.89, -42421.64, -66320.28, -97657.59, -12826.15, -26705.04, 0.000, 0.000, 0.000, 17:15:19.285
229, 137021.69, 157815.14, -92312.03, -76583.02, 7230.97, -31840.51, -34836.98, -36021.98, -47782.48, -61489.40, -41724.89, -42421.64, -66320.28, -97657.59, -12826.15, -26705.04, 0.000, 0.000, 0.000, 17:15:19.285
230, 137021.69, 157815.14, -92312.03, -76583.02, 7230.97, -31840.51, -34836.98, -36021.98, -47783.65, -61493.27, -41718.88, -42439.01, -66326.20, -97665.36, -12816.36, -26687.89, 0.000, 0.000, 0.000, 17:15:19.286
231, 137017.66, 157780.73, -92312.08, -76578.39, 7232.96, -31850.34, -34840.91, -36033.02, -47783.65, -61493.27, -41718.88, -42439.01, -66326.20, -97665.36, -12816.36, -26687.89, 0.000, 0.000, 0.000, 17:15:19.286
232, 137017.66, 157780.73, -92312.08, -76578.39, 7232.96, -31850.34, -34840.91, -36033.02, -47778.86, -61490.92, -41715.82, -42436.86, -66320.75, -97658.59, -12846.93, -26729.24, 0.000, 0.000, 0.000, 17:15:19.287
233, 137033.44, 157796.72, -92315.18, -76585.26, 7238.59, -31848.82, -34837.76, -36038.61, -47778.86, -61490.92, -41715.82, -42436.86, -66320.75, -97658.59, -12846.93, -26729.24, 0.070, 0.940, -0.288, 17:15:19.287
234, 137033.44, 157796.72, -92315.18, -76585.26, 7238.59, -31848.82, -34837.76, -36038.61, -47788.09, -61500.53, -41731.06, -42443.32, -66327.55, -97663.35, -12812.40, -26692.07, 0.000, 0.000, 0.000, 17:15:19.287
235, 137045.36, 157824.83, -92311.92, -76581.79, 7253.16, -31850.27, -34836.54, -36033.47, -47788.09, -61500.53, -41731.06, -42443.32, -66327.55, -97663.35, -12812.40, -26692.07, 0.000, 0.000, 0.000, 17:15:19.288
236, 137045.36, 157824.83, -92311.92, -76581.79, 7253.16, -31850.27, -34836.54, -36033.47, -47777.50, -61485.76, -41725.30, -42432.19, -66317.91, -97658.37, -12822.95, -26729.36, 0.000, 0.000, 0.000, 17:15:19.288
237, 137056.56, 157780.13, -92290.73, -76565.43, 7271.27, -31833.29, -34818.59, -36008.93, -47777.50, -61485.76, -41725.30, -42432.19, -66317.91, -97658.37, -12822.95, -26729.36, 0.000, 0.000, 0.000, 17:15:19.288
238, 137056.56, 157780.13, -92290.73, -76565.43, 7271.27, -31833.29, -34818.59, -36008.93, -47767.53, -61481.89, -41710.99, -42417.98, -66307.03, -97646.74, -12837.32, -26732.53, 0.000, 0.000, 0.000, 17:15:19.289
239, 137058.14, 157839.16, -92303.02, -76583.02, 7275.90, -31832.64, -34833.47, -36023.28, -47767.53, -61481.89, -41710.99, -42417.98, -66307.03, -97646.74, -12837.32, -26732.53, 0.000, 0.000, 0.000, 17:15:19.289
240, 137058.14, 157839.16, -92303.02, -76583.02, 7275.90, -31832.64, -34833.47, -36023.28, -47786.08, -61496.15, -41723.73, -42434.70, -66323.44, -97662.39, -12794.70, -26701.30, 0.000, 0.000, 0.000, 17:15:19.289
241, 137041.45, 157827.41, -92309.44, -76585.66, 7270.04, -31852.69, -34839.73, -36036.09, -47786.08, -61496.15, -41723.73, -42434.70, -66323.44, -97662.39, -12794.70, -26701.30, 0.000, 0.000, 0.000, 17:15:19.290
242, 137041.45, 157827.41, -92309.44, -76585.66, 7270.04, -31852.69, -34839.73, -36036.09, -47787.58, -61493.25, -41719.39, -42438.38, -66317.71, -97657.85, -12812.02, -26735.95, 0.000, 0.000, 0.000, 17:15:19.290
243, 137056.11, 157827.03, -92302.80, -76583.76, 7277.42, -31840.10, -34842.19, -36027.23, -47787.58, -61493.25, -41719.39, -42438.38, -66317.71, -97657.85, -12812.02, -26735.95, 0.068, 0.944, -0.292, 17:15:19.291
244, 137056.11, 157827.03, -92302.80, -76583.76, 7277.42, -31840.10, -34842.19, -36027.23, -47790.80, -61498.92, -41730.77, -42428.17, -66320.15, -97658.57, -12781.71, -26695.58, 0.000, 0.000, 0.000, 17:15:19.291
245, 137050.92, 157861.92, -92309.41, -76586.82, 7277.46, -31845.78, -34857.52, -36039.77, -47790.80, -61498.92, -41730.77, -42428.17, -66320.15, -97658.57, -12781.71, -26695.58, 0.000, 0.000, 0.000, 17:15:19.292
246, 137050.92, 157861.92, -92309.41, -76586.82, 7277.46, -31845.78, -34857.52, -36039.77, -47787.96, -61503.17, -41731.42, -42437.85, -66319.66, -97661.25, -12782.52, -26723.63, 0.000, 0.000, 0.000, 17:15:19.292
247, 137046.09, 157820.19, -92305.21, -76582.64, 7297.49, -31848.78, -34845.92, -36029.09, -47787.96, -61503.17, -41731.42, -42437.85, -66319.66, -97661.25, -12782.52, -26723.63, 0.000, 0.000, 0.000, 17:15:19.293
248, 137046.09, 157820.19, -92305.21, -76582.64, 7297.49, -31848.78, -34845.92, -36029.09, -47785.35, -61503.73, -41725.59, -42432.71, -66318.96, -97658.59, -12791.99, -26735.86, 0.000, 0.000, 0.000, 17:15:19.293
249, 137056.22, 157866.16, -92309.26, -76592.25, 7312.48, -31850.79, -34851.18, -36029.22, -47785.35, -61503.73, -41725.59, -42432.71, -66318.96, -97658.59, -12791.99, -26735.86, 0.000, 0.000, 0.000, 17:15:19.294
250, 137056.22, 157866.16, -92309.26, -76592.25, 7312.48, -31850.79, -34851.18, -36029.22, -47778.91, -61499.95, -41734.35, -42426.58, -66315.26, -97654.92, -12773.80, -26717.42, 0.000, 0.000, 0.000, 17:15:19.294
251, 137050.50, 157842.83, -92297.46, -76581.57, 7309.67, -31851.64, -34842.19, -36021.71, -47778.91, -61499.95, -41734.35, -42426.58, -66315.26, -97654.92, -12773.80, -26717.42, 0.000, 0.000, 0.000, 17:15:19.295
252, 137050.50, 157842.83, -92297.46, -76581.57, 7309.67, -31851.64, -34842.19, -36021.71, -47773.77, -61484.37, -41716.85, -42420.37, -66311.39, -97651.44, -12804.08, -26757.09, 0.000, 0.000, 0.000, 17:15:19.295
253, 137052.89, 157860.02, -92300.52, -76588.41, 7311.93, -31849.83, -34848.98, -36023.57, -47773.77, -61484.37, -41716.85, -42420.37, -66311.39, -97651.44, -12804.08, -26757.09, 0.070, 0.936, -0.292, 17:15:19.296
254, 137052.89, 157860.02, -92300.52, -76588.41, 7311.93, -31849.83, -34848.98, -36023.57, -47782.66, -61499.66, -41735.20, -42428.77, -66314.59, -97653.85, -12770.38, -26718.85, 0.000, 0.000, 0.000, 17:15:19.297
255, 137041.33, 157877.11, -92299.96, -76579.71, 7327.82, -31849.94, -34843.04, -36015.68, -47782.66, -61499.66, -41735.20, -42428.77, -66314.59, -97653.85, -12770.38, -26718.85, 0.000, 0.000, 0.000, 17:15:19.297
0, 137041.33, 157877.11, -92299.96, -76579.71, 7327.82, -31849.94, -34843.04, -36015.68, -47770.46, -61517.63, -41729.50, -42445.00, -66319.44, -97653.45, -12783.54, -26747.50, 0.000, 0.000, 0.000, 17:15:19.297
1, 137029.94, 157843.50, -92312.16, -76581.09, 7341.03, -31863.73, -34839.21, -36019.79, -47770.46, -61517.63, -41729.50, -42445.00, -66319.44, -97653.45, -12783.54, -26747.50, 0.000, 0.000, 0.000, 17:15:19.298
2, 137029.94, 157843.50, -92312.16, -76581.09, 7341.03, -31863.73, -34839.21, -36019.79, -47768.56, -61532.07, -41709.07, -42448.04, -66325.71, -97656.06, -12793.96, -26755.95, 0.000, 0.000, 0.000, 17:15:19.298
3, 137027.30, 157879.02, -92323.56, -76599.16, 7339.40, -31867.33, -34848.40, -36031.66, -47768.56, -61532.07, -41709.07, -42448.04, -66325.71, -97656.06, -12793.96, -26755.95, 0.000, 0.000, 0.000, 17:15:19.298
4, 137027.30, 157879.02, -92323.56, -76599.16, 7339.40, -31867.33, -34848.40, -36031.66, -47782.60, -61536.83, -41711.28, -42458.72, -66340.45, -97671.42, -12762.91, -26737.11, 0.000, 0.000, 0.000, 17:15:19.299
5, 137012.91, 157854.23, -92322.89, -76590.57, 7345.48, -31878.82, -34833.25, -36043.21, -47782.60, -61536.83, -41711.28, -42458.72, -66340.45, -97671.42, -12762.91, -26737.11, 0.000, 0.000, 0.000, 17:15:19.299
6, 137012.91, 157854.23, -92322.89, -76590.57, 7345.48, -31878.82, -34833.25, -36043.21, -47775.09, -61538.11, -41744.43, -42465.47, -66332.80, -97662.19, -12773.93, -26777.54, 0.000, 0.000, 0.000, 17:15:19.299
7, 137013.03, 157853.63, -92331.52, -76597.75, 7347.26, -31891.56, -34846.37, -36046.39, -47775.09, -61538.11, -41744.43, -42465.47, -66332.80, -97662.19, -12773.93, -26777.54, 0.072, 0.936, -0.286, 17:15:19.300
8, 137013.03, 157853.63, -92331.52, -76597.75, 7347.26, -31891.56, -34846.37, -36046.39, -47788.77, -61561.69, -41738.75, -42481.34, -66347.33, -97674.44, -12734.62, -26745.83, 0.000, 0.000, 0.000, 17:15:19.300
9, 137003.42, 157866.83, -92340.82, -76607.67, 7334.72, -31895.92, -34863.64, -36044.71, -47788.77, -61561.69, -41738.75, -42481.34, -66347.33, -97674.44, -12734.62, -26745.83, 0.000, 0.000, 0.000, 17:15:19.301
10, 137003.42, 157866.83, -92340.82, -76607.67, 7334.72, -31895.92, -34863.64, -36044.71, -47781.55, -61568.06, -41742.89, -42493.08, -66354.77, -97681.92, -12757.68, -26789.57, 0.000, 0.000, 0.000, 17:15:19.301
11, 136985.67, 157829.27, -92356.87, -76617.73, 7341.90, -31903.54, -34860.34, -36050.17, -47781.55, -61568.06, -41742.89, -42493.08, -66354.77, -97681.92, -12757.68, -26789.57, 0.000, 0.000, 0.000, 17:15:19.301
12, 136985.67, 157829.27, -92356.87, -76617.73, 7341.90, -31903.54, -34860.34, -36050.17, -47782.11, -61574.36, -41749.84, -42498.67, -66363.11, -97687.42, -12768.48, -26797.42, 0.000, 0.000, 0.000, 17:15:19.302
13, 136997.19, 157852.97, -92343.88, -76610.53, 7370.15, -31888.54, -34846.35, -36039.88, -47782.11, -61574.36, -41749.84, -42498.67, -66363.11, -97687.42, -12768.48, -26797.42, 0.000, 0.000, 0.000, 17:15:19.302
14, 136997.19, 157852.97, -92343.88, -76610.53, 7370.15, -31888.54, -34846.35, -36039.88, -47774.01, -61571.45, -41731.80, -42493.95, -66350.39, -97678.86, -12755.78, -26774.80, 0.000, 0.000, 0.000, 17:15:19.302
15, 136981.92, 157846.22, -92341.34, -76611.80, 7370.76, -31889.59, -34841.27, -36041.41, -47774.01, -61571.45, -41731.80, -42493.95, -66350.39, -97678.86, -12755.78, -26774.80, 0.000, 0.000, 0.000, 17:15:19.303
16, 136981.92, 157846.22, -92341.34, -76611.80, 7370.76, -31889.59, -34841.27, -36041.41, -47774.17, -61563.96, -41729.32, -42484.29, -66354.02, -97682.15, -12771.81, -26802.56, 0.000, 0.000, 0.000, 17:15:19.303
17, 136988.52, 157850.63, -92347.21, -76620.59, 7364.34, -31893.48, -34852.83, -36045.65, -47774.17, -61563.96, -41729.32, -42484.29, -66354.02, -97682.15, -12771.81, -26802.56, 0.072, 0.940, -0.286, 17:15:19.304
18, 136988.52, 157850.63, -92347.21, -76620.59, 7364.34, -31893.48, -34852.83, -36045.65, -47791.40, -61573.93, -41730.30, -42503.47, -66369.95, -97696.56, -12722.97, -26746.19, 0.000, 0.000, 0.000, 17:15:19.304
19, 136979.67, 157889.88, -92358.30, -76633.40, 7348.11, -31905.37, -34860.23, -36057.97, -47791.40, -61573.93, -41730.30, -42503.47, -66369.95, -97696.56, -12722.97, -26746.19, 0.000, 0.000, 0.000, 17:15:19.305
20, 136979.67, 157889.88, -92358.30, -76633.40, 7348.11, -31905.37, -34860.23, -36057.97, -47779.18, -61571.66, -41751.52, -42504.50, -66360.80, -97688.52, -12740.78, -26794.85, 0.000, 0.000, 0.000, 17:15:19.306
21, 136978.61, 157840.09, -92344.17, -76614.38, 7362.49, -31895.63, -34848.29, -36039.93, -47779.18, -61571.66, -41751.52, -42504.50, -66360.80, -97688.52, -12740.78, -26794.85, 0.000, 0.000, 0.000, 17:15:19.307
22, 136978.61, 157840.09, -92344.17, -76614.38, 7362.49, -31895.63, -34848.29, -36039.93, -47770.91, -61566.43, -41736.94, -42491.69, -66347.80, -97673.92, -12757.86, -26813.64, 0.000, 0.000, 0.000, 17:15:19.307
23, 136996.19, 157884.11, -92334.77, -76608.77, 7367.25, -31880.40, -34841.12, -36020.04, -47770.91, -61566.43, -41736.94, -42491.69, -66347.80, -97673.92, -12757.86, -26813.64, 0.000, 0.000, 0.000, 17:15:19.307
24, 136996.19, 157884.11, -92334.77, -76608.77, 7367.25, -31880.40, -34841.12, -36020.04, -47787.78, -61589.16, -41749.64, -42501.64, -66363.51, -97689.05, -12709.74, -26764.47, 0.000, 0.000, 0.000, 17:15:19.308
25, 136967.23, 157885.91, -92356.45, -76628.80, 7355.02, -31912.86, -34864.50, -36062.01, -47787.78, -61589.16, -41749.64, -42501.64, -66363.51, -97689.05, -12709.74, -26764.47, 0.000, 0.000, 0.000, 17:15:19.308
26, 136967.23, 157885.91, -92356.45, -76628.80, 7355.02, -31912.86, -34864.50, -36062.01, -47787.18, -61576.93, -41744.34, -42508.43, -66363.09, -97694.64, -12727.55, -26808.21, 0.000, 0.000, 0.000, 17:15:19.308
27, 136979.94, 157871.34, -92345.09, -76626.43, 7378.20, -31897.44, -34864.05, -36051.21, -47787.18, -61576.93, -41744.34, -42508.43, -66363.09, -97694.64, -12727.55, -26808.21, 0.066, 0.940, -0.290, 17:15:19.309
28, 136979.94, 157871.34, -92345.09, -76626.43, 7378.20, -31897.44, -34864.05, -36051.21, -47779.38, -61566.54, -41742.44, -42489.39, -66353.90, -97684.95, -12714.83, -26765.23, 0.000, 0.000, 0.000, 17:15:19.309
29, 136994.84, 157913.92, -92342.25, -76622.67, 7383.41, -31889.37, -34854.95, -36041.83, -47779.38, -61566.54, -41742.44, -42489.39, -66353.90, -97684.95, -12714.83, -26765.23, 0.000, 0.000, 0.000, 17:15:19.310
30, 136994.84, 157913.92, -92342.25, -76622.67, 7383.41, -31889.37, -34854.95, -36041.83, -47783.18, -61569.24, -41734.46, -42498.62, -66356.96, -97691.18, -12719.26, -26781.79, 0.000, 0.000, 0.000, 17:15:19.310
31, 136987.06, 157876.63, -92345.02, -76623.63, 7393.82, -31897.95, -34866.26, -36050.08, -47783.18, -61569.24, -41734.46, -42498.62, -66356.96, -97691.18, -12719.26, -26781.79, 0.000, 0.000, 0.000, 17:15:19.311
32, 136987.06, 157876.63, -92345.02, -76623.63, 7393.82, -31897.95, -34866.26, -36050.08, -47771.69, -61561.84, -41738.68, -42484.88, -66347.27, -97679.66, -12751.54, -26793.66, 0.000, 0.000, 0.000, 17:15:19.311
33, 137005.69, 157910.05, -92331.95, -76612.34, 7411.86, -31880.16, -34858.68, -36021.18, -47771.69, -61561.84, -41738.68, -42484.88, -66347.27, -97679.66, -12751.54, -26793.66, 0.000, 0.000, 0.000, 17:15:19.312
34, 137005.69, 157910.05, -92331.95, -76612.34, 7411.86, -31880.16, -34858.68, -36021.18, -47769.68, -61569.04, -41744.70, -42502.04, -66347.91, -97677.45, -12738.68, -26766.37, 0.000, 0.000, 0.000, 17:15:19.313
35, 136996.91, 157909.91, -92336.73, -76610.42, 7409.87, -31894.08, -34877.64, -36044.54, -47769.68, -61569.04, -41744.70, -42502.04, -66347.91, -97677.45, -12738.68, -26766.37, 0.000, 0.000, 0.000, 17:15:19.313
36, 136996.91, 157909.91, -92336.73, -76610.42, 7409.87, -31894.08, -34877.64, -36044.54, -47766.30, -61549.30, -41728.96, -42489.86, -66339.84, -97670.98, -12766.24, -26808.77, 0.000, 0.000, 0.000, 17:15:19.314
37, 137011.30, 157903.69, -92331.16, -76608.81, 7412.35, -31893.44, -34873.93, -36046.75, -47766.30, -61549.30, -41728.96, -42489.86, -66339.84, -97670.98, -12766.24, -26808.77, 0.072, 0.942, -0.292, 17:15:19.314
38, 137011.30, 157903.69, -92331.16, -76608.81, 7412.35, -31893.44, -34873.93, -36046.75, -47780.12, -61558.67, -41740.18, -42495.94, -66345.38, -97677.61, -12732.22, -26761.32, 0.000, 0.000, 0.000, 17:15:19.315
39, 137005.58, 157946.78, -92338.38, -76623.66, 7414.61, -31905.64, -34878.53, -36044.24, -47780.12, -61558.67, -41740.18, -42495.94, -66345.38, -97677.61, -12732.22, -26761.32, 0.000, 0.000, 0.000, 17:15:19.315
40, 137005.58, 157946.78, -92338.38, -76623.66, 7414.61, -31905.64, -34878.53, -36044.24, -47780.88, -61568.75, -41744.63, -42499.38, -66347.22, -97682.24, -12732.29, -26787.20, 0.000, 0.000, 0.000, 17:15:19.316
41, 136992.52, 157910.42, -92335.63, -76617.40, 7412.67, -31904.79, -34878.84, -36042.19, -47780.88, -61568.75, -41744.63, -42499.38, -66347.22, -97682.24, -12732.29, -26787.20, 0.000, 0.000, 0.000, 17:15:19.316
42, 136992.52, 157910.42, -92335.63, -76617.40, 7412.67, -31904.79, -34878.84, -36042.19, -47787.85, -61569.24, -41755.88, -42499.43, -66348.05, -97680.49, -12734.82, -26794.02, 0.000, 0.000, 0.000, 17:15:19.317
43, 137003.47, 157939.61, -92326.09, -76608.57, 7428.58, -31891.71, -34873.70, -36032.78, -47787.85, -61569.24, -41755.88, -42499.43, -66348.05, -97680.49, -12734.82, -26794.02, 0.000, 0.000, 0.000, 17:15:19.317
44, 137003.47, 157939.61, -92326.09, -76608.57, 7428.58, -31891.71, -34873.70, -36032.78, -47775.38, -61553.95, -41743.16, -42496.39, -66339.62, -97667.46, -12733.77, -26787.98, 0.000, 0.000, 0.000, 17:15:19.318
45, 137001.58, 157945.73, -92335.86, -76610.84, 7424.62, -31901.88, -34879.98, -36041.02, -47775.38, -61553.95, -41743.16, -42496.39, -66339.62, -97667.46, -12733.77, -26787.98, 0.000, 0.000, 0.000, 17:15:19.318
46, 137001.58, 157945.73, -92335.86, -76610.84, 7424.62, -31901.88, -34879.98, -36041.02, -47780.18, -61568.91, -41742.84, -42514.36, -66350.84, -97680.20, -12736.78, -26818.74, 0.000, 0.000, 0.000, 17:15:19.319
47, 137005.30, 157946.63, -92345.20, -76623.07, 7418.77, -31901.19, -34879.52, -36044.51, -47780.18, -61568.91, -41742.84, -42514.36, -66350.84, -97680.20, -12736.78, -26818.74, 0.068, 0.942, -0.288, 17:15:19.319
48, 137005.30, 157946.63, -92345.20, -76623.07, 7418.77, -31901.19, -34879.52, -36044.51, -47789.57, -61574.85, -41755.74, -42516.32, -66362.64, -97691.98, -12697.96, -26771.55, 0.000, 0.000, 0.000, 17:15:19.320
49, 137010.33, 157980.25, -92352.24, -76629.51, 7422.30, -31923.10, -34885.06, -36051.71, -47789.57, -61574.85, -41755.74, -42516.32, -66362.64, -97691.98, -12697.96, -26771.55, 0.000, 0.000, 0.000, 17:15:19.320
50, 137010.33, 157980.25, -92352.24, -76629.51, 7422.30, -31923.10, -34885.06, -36051.71, -47777.63, -61560.79, -41753.32, -42507.14, -66353.61, -97684.45, -12708.22, -26804.12, 0.000, 0.000, 0.000, 17:15:19.320
